Unit:(mV)
                     CH1         CH2
Frequency              ? 261.296 kHz
00001               8.00    -4000.00
00002               8.00    -4000.00
00003               8.00    -3600.00
00004               6.00    -3400.00
00005              -2.00    -3400.00
00006              -2.00    -3200.00
00007               4.00    -3000.00
00008               4.00    -2800.00
00009               4.00    -2600.00
00010               0.00    -2600.00
00011              -2.00    -2400.00
00012              -4.00    -2000.00
00013              -2.00    -1800.00
00014               0.00    -1600.00
00015               0.00    -1400.00
00016              -2.00    -1400.00
00017              -2.00    -1000.00
00018              -4.00    -1000.00
00019              -8.00     -800.00
00020              -8.00     -600.00
00021              -4.00     -400.00
00022              -4.00     -200.00
00023              -4.00        0.00
00024              -4.00        0.00
00025               6.00      400.00
00026              22.00      600.00
00027              -4.00      600.00
00028             -32.00     1000.00
00029             -18.00     1200.00
00030              10.00     1200.00
00031              18.00     1200.00
00032             108.00     1600.00
00033             252.00     2000.00
00034             -74.00     2200.00
00035            -248.00     2400.00
00036            -248.00     2400.00
00037             200.00     2400.00
00038             252.00     2800.00
00039             252.00     2800.00
00040            -248.00     3000.00
00041            -248.00     3200.00
00042             252.00     3200.00
00043             252.00     3800.00
00044            -248.00     3800.00
00045            -124.00     3600.00
00046             182.00     4400.00
00047             166.00     4200.00
00048             252.00     4000.00
00049            -248.00     5200.00
00050            -248.00     4600.00
00051             252.00     4600.00
00052             164.00     5600.00
00053            -248.00     4800.00
00054            -220.00     5200.00
00055            -154.00     6200.00
00056             252.00     5400.00
00057             218.00     6000.00
00058            -248.00     6400.00
00059            -248.00     5800.00
00060             142.00     6800.00
00061             252.00     6800.00
00062            -248.00     6400.00
00063            -202.00     7000.00
00064              30.00     7200.00
00065             -74.00     7400.00
00066             172.00     7200.00
00067             -56.00     7600.00
00068            -248.00     7600.00
00069              48.00     7600.00
00070              56.00     8400.00
00071             -60.00     7800.00
00072             -88.00     8000.00
00073             -30.00     8600.00
00074             -32.00     8200.00
00075             -20.00     8600.00
00076               6.00     8800.00
00077            -146.00     8600.00
00078             -34.00     9000.00
00079              76.00     9000.00
00080            -102.00     9200.00
00081             -64.00     8800.00
00082               0.00     9400.00
00083             -64.00     9400.00
00084             -42.00     9400.00
00085             -12.00     9800.00
00086             -52.00     9400.00
00087             -64.00     9800.00
00088              -8.00    10000.00
00089             -50.00    10000.00
00090             -68.00    10200.00
00091              -4.00    10200.00
00092             -54.00    10400.00
00093             -64.00    10200.00
00094              -8.00    10400.00
00095             -52.00    10400.00
00096             -60.00    10400.00
00097             -22.00    10600.00
00098             -58.00    10800.00
00099             -64.00    10800.00
00100              -8.00    10800.00
00101             -36.00    10800.00
00102             -80.00    11000.00
00103             -36.00    11000.00
00104             -38.00    11000.00
00105             -58.00    11000.00
00106             -26.00    11000.00
00107             -42.00    11200.00
00108             -66.00    11000.00
00109             -36.00    11200.00
00110             -36.00    11200.00
00111             -60.00    11200.00
00112             -40.00    11200.00
00113             -36.00    11200.00
00114             -52.00    11200.00
00115             -38.00    11200.00
00116             -48.00    11200.00
00117             -66.00    11200.00
00118             -40.00    11200.00
00119             -32.00    11200.00
00120             -56.00    11200.00
00121             -44.00    11200.00
00122             -42.00    11200.00
00123             -56.00    11200.00
00124             -42.00    11400.00
00125             -36.00    11200.00
00126             -58.00    11000.00
00127             -44.00    11200.00
00128             -36.00    11200.00
00129             -50.00    11200.00
00130             -52.00    11000.00
00131             -46.00    11000.00
00132             -50.00    11000.00
00133             -40.00    11000.00
00134             -36.00    11000.00
00135             -54.00    11000.00
00136             -50.00    10800.00
00137             -40.00    10800.00
00138             -44.00    10800.00
00139             -42.00    10400.00
00140             -38.00    10600.00
00141             -44.00    10400.00
00142             -42.00    10400.00
00143             -38.00    10400.00
00144             -44.00    10200.00
00145             -44.00    10200.00
00146             -34.00    10200.00
00147             -40.00    10000.00
00148             -42.00    10000.00
00149             -42.00    10000.00
00150             -44.00     9800.00
00151             -40.00     9600.00
00152             -36.00     9600.00
00153             -36.00     9400.00
00154             -40.00     9400.00
00155             -36.00     9200.00
00156             -36.00     9400.00
00157             -38.00     9200.00
00158             -34.00     9000.00
00159             -36.00     8800.00
00160             -34.00     8800.00
00161             -30.00     8600.00
00162             -34.00     8400.00
00163             -36.00     8400.00
00164             -36.00     8400.00
00165             -28.00     8000.00
00166             -34.00     8000.00
00167             -26.00     8000.00
00168             -32.00     7800.00
00169             -34.00     7600.00
00170             -28.00     7600.00
00171             -26.00     7400.00
00172             -28.00     7200.00
00173             -26.00     7000.00
00174             -26.00     7000.00
00175             -26.00     6800.00
00176             -28.00     6600.00
00177             -26.00     6400.00
00178             -26.00     6200.00
00179             -24.00     6200.00
00180             -24.00     6000.00
00181             -20.00     5800.00
00182             -24.00     5600.00
00183             -24.00     5400.00
00184             -20.00     5200.00
00185             -20.00     5200.00
00186             -18.00     4800.00
00187             -20.00     4800.00
00188             -18.00     4600.00
00189             -16.00     4400.00
00190             -20.00     4400.00
00191             -20.00     4000.00
00192             -16.00     4000.00
00193             -10.00     3800.00
00194             -12.00     3600.00
00195             -16.00     3400.00
00196             -20.00     3200.00
00197             -14.00     3200.00
00198             -12.00     2800.00
00199             -10.00     2600.00
00200             -10.00     2400.00
00201             -10.00     2200.00
00202             -10.00     2000.00
00203              -8.00     2000.00
00204             -10.00     1600.00
00205             -10.00     1600.00
00206              -8.00     1400.00
00207              -4.00     1400.00
00208              -4.00     1200.00
00209              -8.00     1000.00
00210              -4.00      800.00
00211              -4.00      600.00
00212              -2.00      200.00
00213               0.00        0.00
00214               2.00        0.00
00215               4.00     -200.00
00216              12.00     -400.00
00217              32.00     -600.00
00218              16.00     -800.00
00219             -16.00    -1000.00
00220             -12.00    -1200.00
00221              20.00    -1000.00
00222              36.00    -1200.00
00223              34.00    -1600.00
00224             156.00    -1600.00
00225             252.00    -2000.00
00226            -124.00    -2600.00
00227            -248.00    -2600.00
00228            -236.00    -2800.00
00229             252.00    -2600.00
00230             252.00    -2600.00
00231             252.00    -3000.00
00232            -248.00    -3600.00
00233            -248.00    -2800.00
00234             252.00    -4000.00
00235             252.00    -4000.00
00236            -248.00    -3400.00
00237            -248.00    -4400.00
00238             134.00    -4200.00
00239             252.00    -4000.00
00240             252.00    -5200.00
00241            -248.00    -4400.00
00242            -248.00    -4800.00
00243             252.00    -5400.00
00244             252.00    -5000.00
00245            -116.00    -5600.00
00246            -248.00    -5800.00
00247             -50.00    -5600.00
00248             252.00    -6000.00
00249             252.00    -6200.00
00250            -196.00    -6400.00
00251            -248.00    -6400.00
00252             164.00    -6600.00
00253             252.00    -6800.00
00254             -52.00    -6800.00
00255            -244.00    -7200.00
00256             -28.00    -7400.00
00257             188.00    -7200.00
00258             196.00    -7600.00
00259             -74.00    -7600.00
00260            -148.00    -8000.00
00261              80.00    -8000.00
00262             182.00    -8000.00
00263              30.00    -8000.00
00264             -96.00    -8200.00
00265              -2.00    -8400.00
00266             120.00    -8600.00
00267             100.00    -8800.00
00268             -24.00    -8800.00
00269             -68.00    -9000.00
00270              68.00    -9000.00
00271             134.00    -9200.00
00272              30.00    -9200.00
00273             -36.00    -9600.00
00274               8.00    -9600.00
00275              76.00    -9800.00
00276              70.00    -9600.00
00277              16.00    -9800.00
00278               2.00   -10000.00
00279              40.00   -10000.00
00280              68.00   -10000.00
00281              40.00   -10000.00
00282               8.00   -10200.00
00283              22.00   -10400.00
00284              60.00   -10400.00
00285              56.00   -10400.00
00286              32.00   -10600.00
00287              22.00   -10600.00
00288              32.00   -10800.00
00289              52.00   -10600.00
00290              46.00   -10800.00
00291              28.00   -10800.00
00292              40.00   -10800.00
00293              52.00   -10800.00
00294              38.00   -11000.00
00295              32.00   -11200.00
00296              36.00   -11200.00
00297              44.00   -11200.00
00298              48.00   -11000.00
00299              44.00   -11200.00
00300              36.00   -11200.00
00301              30.00   -11400.00
00302              36.00   -11200.00
00303              42.00   -11400.00
00304              46.00   -11400.00
00305              44.00   -11400.00
00306              40.00   -11400.00
00307              36.00   -11400.00
00308              38.00   -11400.00
00309              38.00   -11400.00
00310              40.00   -11400.00
00311              48.00   -11400.00
00312              44.00   -11400.00
00313              36.00   -11400.00
00314              36.00   -11200.00
00315              32.00   -11400.00
00316              38.00   -11200.00
00317              44.00   -11200.00
00318              40.00   -11400.00
00319              38.00   -11200.00
00320              38.00   -11200.00
00321              36.00   -11200.00
00322              32.00   -11200.00
00323              38.00   -11200.00
00324              38.00   -11000.00
00325              38.00   -10800.00
00326              42.00   -10800.00
00327              32.00   -10800.00
00328              28.00   -10800.00
00329              36.00   -10800.00
00330              36.00   -10800.00
00331              38.00   -10600.00
00332              38.00   -10800.00
00333              36.00   -10600.00
00334              28.00   -10600.00
00335              30.00   -10400.00
00336              32.00   -10400.00
00337              30.00   -10200.00
00338              38.00   -10200.00
00339              36.00   -10000.00
00340              28.00   -10000.00
00341              28.00    -9800.00
00342              28.00    -9800.00
00343              30.00    -9600.00
00344              36.00    -9600.00
00345              30.00    -9600.00
00346              28.00    -9200.00
00347              28.00    -9200.00
00348              28.00    -9200.00
00349              24.00    -9200.00
00350              28.00    -9000.00
00351              30.00    -9000.00
00352              32.00    -8800.00
00353              24.00    -8600.00
00354              24.00    -8400.00
00355              22.00    -8400.00
00356              24.00    -8200.00
00357              28.00    -8200.00
00358              26.00    -8000.00
00359              22.00    -8000.00
00360              22.00    -7600.00
00361              20.00    -7600.00
00362              22.00    -7600.00
00363              22.00    -7400.00
00364              22.00    -7200.00
00365              20.00    -7200.00
00366              24.00    -6800.00
00367              16.00    -6800.00
00368              14.00    -6800.00
00369              16.00    -6600.00
00370              16.00    -6200.00
00371              22.00    -6000.00
00372              20.00    -6000.00
00373              14.00    -5800.00
00374              12.00    -5400.00
00375              12.00    -5400.00
00376              14.00    -5200.00
00377              12.00    -5000.00
00378              12.00    -5000.00
00379              14.00    -4800.00
00380               6.00    -4800.00
00381               8.00    -4400.00
00382               6.00    -4200.00
00383               4.00    -4200.00
00384               8.00    -4000.00
00385              10.00    -3800.00
00386               4.00    -3600.00
00387               4.00    -3200.00
00388               0.00    -3400.00
00389               2.00    -3000.00
00390               6.00    -2800.00
00391               2.00    -2800.00
00392               2.00    -2600.00
00393               0.00    -2400.00
00394              -2.00    -2000.00
00395              -4.00    -2000.00
00396              -2.00    -1800.00
00397              -2.00    -1600.00
00398               0.00    -1400.00
00399               2.00    -1200.00
00400              -6.00    -1000.00
00401             -12.00    -1000.00
00402              -4.00     -800.00
00403              -2.00     -600.00
00404              -4.00     -400.00
00405              -4.00     -200.00
00406             -10.00        0.00
00407              -6.00        0.00
00408              22.00      400.00
00409              24.00      600.00
00410             -20.00      600.00
00411             -40.00      800.00
00412             -10.00     1000.00
00413              20.00     1200.00
00414              28.00     1400.00
00415             188.00     1600.00
00416             252.00     2000.00
00417            -248.00     2200.00
00418            -248.00     2400.00
00419            -178.00     2400.00
00420             252.00     2400.00
00421             252.00     2800.00
00422             252.00     2800.00
00423            -248.00     3000.00
00424            -248.00     3200.00
00425             252.00     3200.00
00426             198.00     3800.00
00427            -248.00     3600.00
00428             118.00     3600.00
00429              90.00     4600.00
00430             252.00     4000.00
00431             252.00     4600.00
00432            -248.00     5200.00
00433             -74.00     4400.00
00434             252.00     5000.00
00435             -56.00     5600.00
00436            -230.00     4800.00
00437            -234.00     5800.00
00438             -36.00     6000.00
00439             252.00     5400.00
00440              90.00     6400.00
00441            -248.00     6200.00
00442            -248.00     6000.00
00443             252.00     6800.00
00444             240.00     6800.00
00445            -248.00     6400.00
00446             -78.00     7000.00
00447             -12.00     7000.00
00448             -18.00     7200.00
00449             182.00     7200.00
00450            -178.00     7800.00
00451            -176.00     7600.00
00452              94.00     7800.00
00453              12.00     8400.00
00454             -74.00     7600.00
00455             -76.00     8400.00
00456             -18.00     8400.00
00457             -40.00     8400.00
00458               0.00     8800.00
00459             -32.00     8600.00
00460            -150.00     8800.00
00461              28.00     9000.00
00462              36.00     9000.00
00463            -120.00     9000.00
00464             -34.00     9200.00
00465             -18.00     9400.00
00466             -68.00     9200.00
00467             -28.00     9400.00
00468             -16.00     9800.00
00469             -68.00     9600.00
00470             -54.00     9800.00
00471              -8.00    10000.00
00472             -68.00    10000.00
00473             -46.00    10000.00
00474             -10.00    10200.00
00475             -74.00    10200.00
00476             -42.00    10200.00
00477              -8.00    10400.00
00478             -72.00    10400.00
00479             -44.00    10400.00
00480             -16.00    10800.00
00481             -74.00    10800.00
00482             -58.00    10600.00
00483              -2.00    11000.00
00484             -50.00    10800.00
00485             -68.00    11000.00
00486             -30.00    11000.00
00487             -52.00    11000.00
00488             -56.00    11000.00
00489             -24.00    11200.00
00490             -44.00    11200.00
00491             -56.00    11200.00
00492             -34.00    11200.00
00493             -52.00    11400.00
00494             -58.00    11200.00
00495             -26.00    11200.00
00496             -40.00    11200.00
00497             -56.00    11200.00
00498             -36.00    11200.00
00499             -52.00    11200.00
00500             -58.00    11200.00
00501             -28.00    11200.00
00502             -42.00    11400.00
00503             -60.00    11200.00
00504             -40.00    11400.00
00505             -44.00    11400.00
00506             -52.00    11200.00
00507             -40.00    11200.00
00508             -44.00    11200.00
00509             -56.00    11200.00
00510             -36.00    11000.00
00511             -40.00    11200.00
00512             -56.00    11200.00
00513             -48.00    11000.00
00514             -44.00    11000.00
00515             -48.00    11000.00
00516             -36.00    10800.00
00517             -42.00    10800.00
00518             -52.00    11000.00
00519             -44.00    10800.00
00520             -40.00    10800.00
00521             -44.00    10600.00
00522             -42.00    10800.00
00523             -40.00    10400.00
00524             -48.00    10400.00
00525             -42.00    10400.00
00526             -40.00    10200.00
00527             -48.00    10200.00
00528             -42.00    10200.00
00529             -34.00    10200.00
00530             -42.00    10000.00
00531             -42.00    10000.00
00532             -40.00    10000.00
00533             -44.00     9600.00
00534             -40.00     9600.00
00535             -34.00     9600.00
00536             -38.00     9400.00
00537             -36.00     9600.00
00538             -36.00     9200.00
00539             -38.00     9200.00
00540             -38.00     9000.00
00541             -34.00     9000.00
00542             -36.00     8800.00
00543             -34.00     8600.00
00544             -32.00     8600.00
00545             -36.00     8400.00
00546             -38.00     8400.00
00547             -34.00     8200.00
00548             -32.00     8000.00
00549             -28.00     8000.00
00550             -26.00     7800.00
00551             -32.00     7600.00
00552             -32.00     7600.00
00553             -28.00     7600.00
00554             -26.00     7200.00
00555             -26.00     7200.00
00556             -26.00     7000.00
00557             -26.00     6800.00
00558             -26.00     6800.00
00559             -28.00     6600.00
00560             -28.00     6400.00
00561             -26.00     6200.00
00562             -18.00     6000.00
00563             -20.00     6000.00
00564             -20.00     5600.00
00565             -24.00     5600.00
00566             -20.00     5600.00
00567             -20.00     5400.00
00568             -18.00     5200.00
00569             -20.00     5000.00
00570             -20.00     4800.00
00571             -16.00     4600.00
00572             -18.00     4400.00
00573             -20.00     4200.00
00574             -18.00     4000.00
00575             -16.00     3800.00
00576             -12.00     3600.00
00577             -12.00     3600.00
00578             -16.00     3200.00
00579             -16.00     3000.00
00580             -16.00     3200.00
00581             -10.00     2800.00
00582             -12.00     2400.00
00583             -10.00     2400.00
00584              -8.00     2400.00
00585             -10.00     2200.00
00586             -10.00     2000.00
00587              -6.00     1600.00
00588              -8.00     1600.00
00589              -4.00     1400.00
00590              -2.00     1200.00
00591              -4.00     1000.00
00592             -10.00      600.00
00593              -4.00      800.00
00594              -2.00      400.00
00595               0.00      400.00
00596               2.00      200.00
00597               0.00     -200.00
00598               6.00     -400.00
00599              14.00     -400.00
00600              34.00     -800.00
00601               8.00     -800.00
00602             -18.00     -800.00
00603              -4.00    -1000.00
00604              26.00    -1200.00
00605              28.00    -1400.00
00606              48.00    -1600.00
00607             230.00    -1600.00
00608             252.00    -2200.00
00609            -248.00    -2600.00
00610            -248.00    -2400.00
00611             -38.00    -2800.00
00612             252.00    -2800.00
00613             252.00    -2600.00
00614             252.00    -3400.00
00615            -248.00    -3400.00
00616            -248.00    -3000.00
00617             252.00    -4200.00
00618             252.00    -3600.00
00619            -248.00    -3600.00
00620            -228.00    -4800.00
00621             198.00    -4000.00
00622             252.00    -4400.00
00623             204.00    -5200.00
00624            -248.00    -4400.00
00625            -218.00    -5200.00
00626             252.00    -5400.00
00627             252.00    -5000.00
00628            -242.00    -5600.00
00629            -248.00    -5800.00
00630              96.00    -5600.00
00631             252.00    -6000.00
00632             140.00    -6000.00
00633            -248.00    -6400.00
00634            -234.00    -6400.00
00635             252.00    -6800.00
00636             252.00    -6800.00
00637            -172.00    -6800.00
00638            -198.00    -7200.00
00639              44.00    -7200.00
00640             224.00    -7400.00
00641             134.00    -7600.00
00642            -148.00    -7600.00
00643             -98.00    -7800.00
00644             136.00    -8000.00
00645             158.00    -8000.00
00646             -20.00    -8200.00
00647             -86.00    -8200.00
00648              44.00    -8400.00
00649             128.00    -8800.00
00650              66.00    -8800.00
00651             -52.00    -9000.00
00652             -40.00    -9000.00
00653             102.00    -9200.00
00654             116.00    -9200.00
00655              -2.00    -9200.00
00656             -32.00    -9600.00
00657              32.00    -9600.00
00658              86.00    -9600.00
00659              54.00    -9800.00
00660               4.00    -9800.00
00661              10.00   -10000.00
00662              54.00   -10000.00
00663              64.00   -10000.00
00664              24.00   -10200.00
00665               6.00   -10400.00
00666              34.00   -10200.00
00667              62.00   -10400.00
00668              50.00   -10400.00
00669              28.00   -10600.00
00670              22.00   -10600.00
00671              38.00   -10800.00
00672              52.00   -10800.00
00673              38.00   -10800.00
00674              28.00   -10800.00
00675              44.00   -11000.00
00676              46.00   -10800.00
00677              28.00   -11000.00
00678              26.00   -11200.00
00679              38.00   -11200.00
00680              48.00   -11200.00
00681              54.00   -11200.00
00682              48.00   -11200.00
00683              36.00   -11400.00
00684              36.00   -11200.00
00685              40.00   -11400.00
00686              38.00   -11200.00
00687              38.00   -11400.00
00688              36.00   -11200.00
00689              32.00   -11400.00
00690              36.00   -11400.00
00691              38.00   -11400.00
00692              44.00   -11400.00
00693              48.00   -11200.00
00694              52.00   -11400.00
00695              46.00   -11400.00
00696              38.00   -11400.00
00697              30.00   -11400.00
00698              32.00   -11400.00
00699              36.00   -11400.00
00700              44.00   -11200.00
00701              44.00   -11200.00
00702              44.00   -11200.00
00703              38.00   -11200.00
00704              34.00   -11200.00
00705              36.00   -11200.00
00706              38.00   -11000.00
00707              38.00   -11200.00
00708              38.00   -11000.00
00709              40.00   -11000.00
00710              34.00   -10800.00
00711              30.00   -10800.00
00712              36.00   -10800.00
00713              38.00   -10800.00
00714              38.00   -10800.00
00715              36.00   -10600.00
00716              32.00   -10600.00
00717              30.00   -10600.00
00718              32.00   -10400.00
00719              32.00   -10400.00
00720              36.00   -10400.00
00721              32.00   -10200.00
00722              32.00   -10000.00
00723              28.00   -10000.00
00724              30.00   -10000.00
00725              28.00    -9800.00
00726              30.00    -9800.00
00727              32.00    -9600.00
00728              30.00    -9600.00
00729              28.00    -9400.00
00730              24.00    -9400.00
00731              24.00    -9200.00
00732              28.00    -9200.00
00733              28.00    -9000.00
00734              28.00    -8800.00
00735              28.00    -8800.00
00736              22.00    -8600.00
00737              22.00    -8400.00
00738              22.00    -8400.00
00739              24.00    -8200.00
00740              30.00    -8200.00
00741              28.00    -8000.00
00742              24.00    -8000.00
00743              24.00    -7600.00
00744              18.00    -7600.00
00745              20.00    -7400.00
00746              22.00    -7200.00
00747              22.00    -7200.00
00748              22.00    -7000.00
00749              22.00    -6800.00
00750              16.00    -6800.00
00751              14.00    -6800.00
00752              16.00    -6400.00
00753              16.00    -6200.00
00754              20.00    -6000.00
00755              18.00    -6000.00
00756              14.00    -5800.00
00757              12.00    -5400.00
00758              12.00    -5400.00
00759              14.00    -5200.00
00760              18.00    -5200.00
00761              14.00    -5000.00
00762              12.00    -4800.00
00763              12.00    -4400.00
00764               6.00    -4400.00
00765               8.00    -4400.00
00766               6.00    -4000.00
00767               6.00    -4000.00
00768              10.00    -3600.00
00769               6.00    -3600.00
00770               4.00    -3400.00
00771               4.00    -3200.00
00772               2.00    -3000.00
00773               6.00    -2800.00
00774               4.00    -2800.00
00775               6.00    -2600.00
00776              -2.00    -2400.00
00777              -4.00    -2000.00
00778              -4.00    -2000.00
00779              -2.00    -1600.00
00780               0.00    -1600.00
00781               0.00    -1400.00
00782              -4.00    -1200.00
00783              -8.00    -1000.00
00784              -8.00     -800.00
00785              -4.00     -600.00
00786              -8.00     -400.00
00787              -2.00     -400.00
00788              -4.00        0.00
00789              -2.00     -200.00
00790               0.00      400.00
00791              20.00      400.00
00792              10.00      600.00
00793             -26.00      800.00
00794             -28.00     1000.00
00795               2.00     1200.00
00796              16.00     1200.00
00797              40.00     1400.00
00798             252.00     1600.00
00799             202.00     2200.00
00800            -248.00     2200.00
00801            -248.00     2400.00
00802              -4.00     2200.00
00803             252.00     2400.00
00804             252.00     2800.00
00805            -180.00     2800.00
00806            -248.00     3200.00
00807             252.00     3400.00
00808             252.00     3200.00
00809            -248.00     4000.00
00810            -248.00     3600.00
00811             224.00     4000.00
00812              42.00     4400.00
00813             252.00     3800.00
00814             -84.00     4800.00
00815            -248.00     5200.00
00816             252.00     4400.00
00817             252.00     5600.00
00818            -194.00     5400.00
00819            -212.00     4800.00
00820            -226.00     6200.00
00821             108.00     5800.00
00822             252.00     5400.00
00823             -60.00     6400.00
00824            -248.00     6000.00
00825            -150.00     6200.00
00826             252.00     7000.00
00827              32.00     6400.00
00828            -248.00     6800.00
00829               8.00     7000.00
00830             -60.00     7200.00
00831              70.00     7200.00
00832             118.00     7400.00
00833            -248.00     7800.00
00834             -76.00     7400.00
00835             100.00     8000.00
00836             -24.00     8000.00
00837             -84.00     7600.00
00838             -58.00     8400.00
00839             -18.00     8200.00
00840             -42.00     8400.00
00841              22.00     8600.00
00842             -84.00     8600.00
00843            -122.00     8800.00
00844              76.00     8800.00
00845             -28.00     9200.00
00846            -114.00     9000.00
00847              -4.00     9200.00
00848             -40.00     9600.00
00849             -64.00     9200.00
00850             -18.00     9800.00
00851             -34.00     9600.00
00852             -74.00     9600.00
00853             -28.00    10000.00
00854             -22.00    10000.00
00855             -82.00    10000.00
00856             -26.00    10000.00
00857             -26.00    10200.00
00858             -82.00    10200.00
00859             -26.00    10200.00
00860             -26.00    10400.00
00861             -70.00    10400.00
00862             -36.00    10400.00
00863             -36.00    10800.00
00864             -74.00    10600.00
00865             -28.00    10800.00
00866             -10.00    10800.00
00867             -72.00    11000.00
00868             -56.00    11000.00
00869             -28.00    11000.00
00870             -60.00    11000.00
00871             -40.00    11000.00
00872             -30.00    11200.00
00873             -64.00    11200.00
00874             -48.00    11200.00
00875             -32.00    11200.00
00876             -56.00    11200.00
00877             -50.00    11200.00
00878             -32.00    11400.00
00879             -52.00    11200.00
00880             -44.00    11200.00
00881             -36.00    11400.00
00882             -64.00    11400.00
00883             -52.00    11200.00
00884             -28.00    11200.00
00885             -48.00    11200.00
00886             -52.00    11200.00
00887             -40.00    11600.00
00888             -50.00    11200.00
00889             -52.00    11200.00
00890             -34.00    11400.00
00891             -50.00    11200.00
00892             -52.00    11200.00
00893             -34.00    11200.00
00894             -42.00    11200.00
00895             -52.00    11000.00
00896             -46.00    11200.00
00897             -44.00    11200.00
00898             -42.00    11000.00
00899             -32.00    11000.00
00900             -46.00    11000.00
00901             -54.00    10800.00
00902             -42.00    10800.00
00903             -42.00    10600.00
00904             -44.00    10400.00
00905             -36.00    10600.00
00906             -44.00    10600.00
00907             -48.00    10400.00
00908             -36.00    10400.00
00909             -42.00    10200.00
00910             -50.00    10400.00
00911             -40.00    10200.00
00912             -36.00    10200.00
00913             -42.00    10000.00
00914             -42.00    10000.00
00915             -42.00    10000.00
00916             -44.00     9800.00
00917             -36.00     9600.00
00918             -34.00     9400.00
00919             -40.00     9400.00
00920             -40.00     9400.00
00921             -36.00     9200.00
00922             -40.00     9200.00
00923             -36.00     8800.00
00924             -34.00     9000.00
00925             -36.00     8600.00
00926             -32.00     8600.00
00927             -30.00     8400.00
00928             -36.00     8400.00
00929             -36.00     8400.00
00930             -28.00     8000.00
00931             -32.00     8000.00
00932             -28.00     7800.00
00933             -28.00     7800.00
00934             -34.00     7600.00
00935             -34.00     7600.00
00936             -26.00     7400.00
00937             -28.00     7200.00
00938             -26.00     7000.00
00939             -26.00     7000.00
00940             -24.00     6800.00
00941             -26.00     6600.00
00942             -26.00     6400.00
00943             -28.00     6400.00
00944             -22.00     6200.00
00945             -18.00     6000.00
00946             -20.00     6000.00
00947             -26.00     5600.00
00948             -20.00     5600.00
00949             -20.00     5400.00
00950             -18.00     5200.00
00951             -18.00     5200.00
00952             -18.00     4800.00
00953             -18.00     4800.00
00954             -18.00     4600.00
00955             -18.00     4400.00
00956             -18.00     4200.00
00957             -18.00     4000.00
00958             -12.00     3800.00
00959             -10.00     3600.00
00960             -12.00     3600.00
00961             -16.00     3200.00
00962             -16.00     3000.00
00963             -10.00     3000.00
00964             -10.00     2800.00
00965             -10.00     2600.00
00966             -10.00     2400.00
00967             -10.00     2200.00
00968              -8.00     2000.00
00969              -4.00     2000.00
00970              -8.00     1600.00
00971              -8.00     1600.00
00972              -4.00     1400.00
00973              -2.00     1200.00
00974              -4.00     1000.00
00975              -8.00      800.00
00976              -6.00      600.00
00977              -4.00      400.00
00978               0.00      400.00
00979               4.00        0.00
00980               4.00     -200.00
00981               4.00     -400.00
00982              22.00     -400.00
00983              30.00     -600.00
00984              -6.00     -800.00
00985             -18.00     -800.00
00986               6.00    -1000.00
00987              30.00    -1400.00
00988              28.00    -1600.00
00989              80.00    -1600.00
00990             252.00    -2000.00
00991             132.00    -2400.00
00992            -248.00    -2600.00
00993            -248.00    -2600.00
00994             126.00    -2800.00
00995             252.00    -2800.00
00996             252.00    -2800.00
00997              88.00    -3600.00
00998            -248.00    -3200.00
00999             -32.00    -3400.00
01000             252.00    -4400.00
01001             -10.00    -3200.00
01002            -248.00    -4000.00
01003             -48.00    -4800.00
01004             248.00    -3800.00
01005             252.00    -4800.00
01006             -30.00    -4800.00
01007            -248.00    -4400.00
01008              38.00    -5200.00
01009             252.00    -5200.00
01010             126.00    -5200.00
01011            -248.00    -5800.00
01012            -234.00    -5400.00
01013             224.00    -5800.00
01014             252.00    -6000.00
01015               4.00    -6200.00
01016            -248.00    -6400.00
01017             -88.00    -6400.00
01018             252.00    -6800.00
01019             168.00    -6800.00
01020            -240.00    -7000.00
01021            -128.00    -7200.00
01022             110.00    -7200.00
01023             236.00    -7600.00
01024              52.00    -7600.00
01025            -178.00    -7600.00
01026             -26.00    -8000.00
01027             174.00    -7800.00
01028             110.00    -8000.00
01029             -64.00    -8200.00
01030             -60.00    -8400.00
01031              84.00    -8600.00
01032             126.00    -8800.00
01033              30.00    -9000.00
01034             -76.00    -8800.00
01035               0.00    -9000.00
01036             130.00    -9200.00
01037              84.00    -9200.00
01038             -24.00    -9600.00
01039             -20.00    -9600.00
01040              54.00    -9600.00
01041              84.00    -9800.00
01042              36.00    -9600.00
01043               0.00    -9800.00
01044              22.00    -9800.00
01045              62.00   -10000.00
01046              56.00   -10200.00
01047              14.00   -10000.00
01048              14.00   -10200.00
01049              46.00   -10400.00
01050              62.00   -10400.00
01051              44.00   -10400.00
01052              24.00   -10600.00
01053              22.00   -10600.00
01054              42.00   -10800.00
01055              48.00   -10800.00
01056              32.00   -10800.00
01057              32.00   -10800.00
01058              48.00   -11000.00
01059              44.00   -11000.00
01060              30.00   -11200.00
01061              30.00   -11000.00
01062              38.00   -11200.00
01063              46.00   -11200.00
01064              48.00   -11200.00
01065              38.00   -11200.00
01066              32.00   -11400.00
01067              34.00   -11200.00
01068              40.00   -11400.00
01069              46.00   -11200.00
01070              44.00   -11400.00
01071              40.00   -11400.00
01072              38.00   -11400.00
01073              38.00   -11600.00
01074              36.00   -11400.00
01075              38.00   -11200.00
01076              44.00   -11400.00
01077              44.00   -11200.00
01078              40.00   -11400.00
01079              40.00   -11400.00
01080              36.00   -11400.00
01081              36.00   -11200.00
01082              40.00   -11400.00
01083              44.00   -11400.00
01084              38.00   -11200.00
01085              38.00   -11200.00
01086              36.00   -11400.00
01087              32.00   -11200.00
01088              38.00   -11200.00
01089              38.00   -11200.00
01090              38.00   -10800.00
01091              44.00   -10800.00
01092              38.00   -10800.00
01093              30.00   -10800.00
01094              30.00   -10800.00
01095              38.00   -10800.00
01096              40.00   -10600.00
01097              38.00   -10600.00
01098              36.00   -10600.00
01099              30.00   -10600.00
01100              30.00   -10400.00
01101              32.00   -10400.00
01102              34.00   -10400.00
01103              36.00   -10400.00
01104              36.00   -10200.00
01105              32.00   -10000.00
01106              28.00   -10000.00
01107              28.00    -9800.00
01108              28.00    -9800.00
01109              30.00    -9800.00
01110              36.00    -9600.00
01111              30.00    -9400.00
01112              24.00    -9200.00
01113              28.00    -9200.00
01114              22.00    -9200.00
01115              24.00    -9000.00
01116              30.00    -9000.00
01117              28.00    -8800.00
01118              24.00    -8800.00
01119              28.00    -8600.00
01120              22.00    -8400.00
01121              22.00    -8400.00
01122              24.00    -8200.00
01123              24.00    -8000.00
01124              28.00    -8000.00
01125              24.00    -7800.00
01126              20.00    -7600.00
01127              20.00    -7600.00
01128              20.00    -7400.00
01129              22.00    -7200.00
01130              22.00    -7200.00
01131              22.00    -7200.00
01132              20.00    -6800.00
01133              16.00    -6600.00
01134              14.00    -6600.00
01135              18.00    -6400.00
01136              20.00    -6000.00
01137              18.00    -6000.00
01138              16.00    -5800.00
01139              14.00    -5800.00
01140              14.00    -5400.00
01141              12.00    -5200.00
01142              14.00    -5200.00
01143              16.00    -5000.00
01144              14.00    -4800.00
01145              12.00    -4800.00
01146               8.00    -4400.00
01147               6.00    -4400.00
01148               6.00    -4200.00
01149              10.00    -4000.00
01150              12.00    -3800.00
01151              10.00    -3600.00
01152               6.00    -3600.00
01153               4.00    -3400.00
01154               4.00    -3200.00
01155               6.00    -3000.00
01156               6.00    -2800.00
01157               6.00    -2600.00
01158               4.00    -2400.00
01159               0.00    -2000.00
01160              -2.00    -2200.00
01161              -2.00    -1800.00
01162              -2.00    -1600.00
01163              -2.00    -1600.00
01164              -2.00    -1200.00
01165              -2.00    -1200.00
01166              -4.00    -1000.00
01167              -8.00     -800.00
01168              -6.00     -600.00
01169              -4.00     -400.00
01170              -4.00     -200.00
01171              -2.00        0.00
01172              -4.00        0.00
01173               4.00      400.00
01174              24.00      400.00
01175               0.00      600.00
01176             -32.00     1000.00
01177             -26.00     1000.00
01178               8.00     1200.00
01179              16.00     1200.00
01180              84.00     1600.00
01181             252.00     2000.00
01182              16.00     2000.00
01183            -248.00     2400.00
01184            -248.00     2400.00
01185             142.00     2200.00
01186             252.00     2800.00
01187             252.00     3000.00
01188            -248.00     2800.00
01189            -248.00     3200.00
01190             252.00     3200.00
01191             252.00     3600.00
01192            -248.00     3800.00
01193            -248.00     3400.00
01194             214.00     4400.00
01195             102.00     4200.00
01196             252.00     4000.00
01197            -248.00     5200.00
01198            -248.00     4600.00
01199             252.00     4600.00
01200             252.00     5800.00
01201            -248.00     5000.00
01202            -216.00     5200.00
01203            -186.00     6400.00
01204             236.00     5400.00
01205             252.00     5800.00
01206            -198.00     6600.00
01207            -248.00     5800.00
01208              52.00     6600.00
01209             252.00     7000.00
01210            -178.00     6600.00
01211            -248.00     7000.00
01212              36.00     7000.00
01213             -82.00     7400.00
01214             148.00     7200.00
01215               6.00     7600.00
01216            -248.00     7600.00
01217              16.00     7400.00
01218              74.00     8400.00
01219             -52.00     7800.00
01220             -84.00     8000.00
01221             -36.00     8600.00
01222             -26.00     8200.00
01223             -30.00     8400.00
01224              20.00     8600.00
01225            -132.00     8600.00
01226             -64.00     9000.00
01227              88.00     8800.00
01228             -86.00     9200.00
01229             -84.00     9000.00
01230               4.00     9400.00
01231             -60.00     9600.00
01232             -50.00     9400.00
01233             -12.00     9600.00
01234             -50.00     9600.00
01235             -72.00     9600.00
01236             -12.00    10000.00
01237             -42.00    10000.00
01238             -74.00    10000.00
01239             -12.00    10200.00
01240             -50.00    10200.00
01241             -72.00    10200.00
01242             -12.00    10400.00
01243             -44.00    10400.00
01244             -66.00    10400.00
01245             -26.00    10600.00
01246             -52.00    10600.00
01247             -72.00    10400.00
01248             -14.00    10800.00
01249             -28.00    10800.00
01250             -80.00    10800.00
01251             -42.00    11000.00
01252             -34.00    10800.00
01253             -60.00    11000.00
01254             -34.00    11000.00
01255             -36.00    11200.00
01256             -68.00    11200.00
01257             -40.00    11200.00
01258             -36.00    11200.00
01259             -64.00    11200.00
01260             -42.00    11200.00
01261             -34.00    11200.00
01262             -56.00    11200.00
01263             -42.00    11400.00
01264             -42.00    11400.00
01265             -64.00    11200.00
01266             -42.00    11400.00
01267             -30.00    11200.00
01268             -54.00    11200.00
01269             -48.00    11200.00
01270             -40.00    11200.00
01271             -56.00    11600.00
01272             -48.00    11200.00
01273             -36.00    11200.00
01274             -52.00    11200.00
01275             -46.00    11000.00
01276             -34.00    11200.00
01277             -44.00    11200.00
01278             -50.00    11000.00
01279             -44.00    11000.00
01280             -44.00    11200.00
01281             -40.00    11000.00
01282             -32.00    11000.00
01283             -48.00    11000.00
01284             -52.00    10800.00
01285             -40.00    10800.00
01286             -44.00    10800.00
01287             -42.00    10600.00
01288             -34.00    10600.00
01289             -42.00    10600.00
01290             -48.00    10400.00
01291             -40.00    10400.00
01292             -42.00    10200.00
01293             -42.00    10400.00
01294             -32.00    10000.00
01295             -36.00    10000.00
01296             -50.00    10000.00
01297             -42.00    10000.00
01298             -36.00    10000.00
01299             -40.00     9600.00
01300             -36.00     9600.00
01301             -38.00     9400.00
01302             -44.00     9200.00
01303             -34.00     9400.00
01304             -34.00     9200.00
01305             -38.00     9200.00
01306             -42.00     9000.00
01307             -36.00     8800.00
01308             -36.00     8600.00
01309             -28.00     8600.00
01310             -32.00     8600.00
01311             -42.00     8600.00
01312             -36.00     8200.00
01313             -28.00     8200.00
01314             -32.00     7800.00
01315             -28.00     8000.00
01316             -28.00     7800.00
01317             -34.00     7600.00
01318             -34.00     7600.00
01319             -26.00     7400.00
01320             -28.00     7200.00
01321             -26.00     7000.00
01322             -26.00     6800.00
01323             -24.00     6800.00
01324             -26.00     6800.00
01325             -28.00     6400.00
01326             -34.00     6200.00
01327             -20.00     6200.00
01328             -22.00     6000.00
01329             -26.00     5800.00
01330             -20.00     5600.00
01331             -26.00     5600.00
01332             -24.00     5400.00
01333             -12.00     5200.00
01334             -20.00     5200.00
01335             -20.00     4800.00
01336             -18.00     4600.00
01337             -18.00     4400.00
01338             -18.00     4400.00
01339             -20.00     4200.00
01340             -18.00     4000.00
01341              -8.00     3800.00
01342             -10.00     3600.00
01343             -16.00     3400.00
01344             -12.00     3200.00
01345             -16.00     3200.00
01346             -12.00     2800.00
01347              -6.00     2800.00
01348              -4.00     2400.00
01349             -12.00     2400.00
01350             -10.00     2200.00
01351             -10.00     2200.00
01352              -6.00     2000.00
01353              -8.00     1600.00
01354              -8.00     1600.00
01355              -4.00     1400.00
01356              -2.00     1200.00
01357              -6.00     1000.00
01358              -6.00      800.00
01359              -2.00      400.00
01360              -4.00      400.00
01361              -2.00      400.00
01362               4.00        0.00
01363               2.00     -200.00
01364               6.00     -400.00
01365              28.00     -600.00
01366              22.00     -800.00
01367             -16.00    -1000.00
01368             -18.00    -1000.00
01369              20.00    -1200.00
01370              32.00    -1400.00
01371              30.00    -1600.00
01372             134.00    -1600.00
01373             252.00    -2000.00
01374             -42.00    -2600.00
01375            -248.00    -2600.00
01376            -248.00    -2800.00
01377             238.00    -2800.00
01378             252.00    -2400.00
01379             252.00    -3000.00
01380            -248.00    -3600.00
01381            -248.00    -2800.00
01382             252.00    -3600.00
01383             252.00    -4000.00
01384            -248.00    -3400.00
01385            -248.00    -4400.00
01386              86.00    -4400.00
01387             252.00    -4000.00
01388             252.00    -5000.00
01389            -248.00    -4800.00
01390            -248.00    -4800.00
01391             252.00    -5400.00
01392             252.00    -5000.00
01393             -46.00    -5400.00
01394            -248.00    -5800.00
01395            -110.00    -5600.00
01396             252.00    -6000.00
01397             252.00    -6200.00
01398            -136.00    -6400.00
01399            -248.00    -6400.00
01400              86.00    -6600.00
01401             252.00    -6800.00
01402              12.00    -6800.00
01403            -248.00    -7000.00
01404             -58.00    -7200.00
01405             168.00    -7200.00
01406             218.00    -7400.00
01407             -42.00    -7600.00
01408            -168.00    -7600.00
01409              52.00    -8200.00
01410             184.00    -8000.00
01411              60.00    -8200.00
01412             -88.00    -8200.00
01413             -20.00    -8200.00
01414             110.00    -8600.00
01415             108.00    -8600.00
01416              -8.00    -8800.00
01417             -72.00    -9000.00
01418              46.00    -9000.00
01419             134.00    -9200.00
01420              48.00    -9200.00
01421             -34.00    -9600.00
01422              -2.00    -9600.00
01423              70.00    -9600.00
01424              72.00    -9800.00
01425              22.00    -9800.00
01426               0.00   -10000.00
01427              36.00   -10000.00
01428              64.00   -10200.00
01429              46.00   -10000.00
01430               8.00   -10400.00
01431              20.00   -10400.00
01432              54.00   -10400.00
01433              60.00   -10600.00
01434              32.00   -10600.00
01435              20.00   -10600.00
01436              30.00   -10800.00
01437              46.00   -10600.00
01438              44.00   -10600.00
01439              30.00   -10800.00
01440              36.00   -10800.00
01441              48.00   -11200.00
01442              38.00   -11000.00
01443              28.00   -11000.00
01444              32.00   -11000.00
01445              40.00   -11200.00
01446              46.00   -11200.00
01447              46.00   -11000.00
01448              36.00   -11200.00
01449              30.00   -11200.00
01450              38.00   -11200.00
01451              44.00   -11400.00
01452              44.00   -11400.00
01453              44.00   -11400.00
01454              38.00   -11400.00
01455              38.00   -11400.00
01456              36.00   -11400.00
01457              32.00   -11400.00
01458              38.00   -11600.00
01459              44.00   -11400.00
01460              44.00   -11400.00
01461              40.00   -11200.00
01462              36.00   -11400.00
01463              38.00   -11400.00
01464              36.00   -11200.00
01465              44.00   -11200.00
01466              44.00   -11200.00
01467              40.00   -11200.00
01468              38.00   -11200.00
01469              36.00   -11200.00
01470              36.00   -11000.00
01471              38.00   -11000.00
01472              38.00   -11000.00
01473              40.00   -10800.00
01474              42.00   -10800.00
01475              38.00   -10800.00
01476              30.00   -10800.00
01477              36.00   -10600.00
01478              38.00   -10800.00
01479              40.00   -10600.00
01480              38.00   -10600.00
01481              32.00   -10800.00
01482              30.00   -10400.00
01483              36.00   -10400.00
01484              36.00   -10400.00
01485              30.00   -10400.00
01486              34.00   -10200.00
01487              38.00   -10000.00
01488              36.00   -10000.00
01489              30.00   -10000.00
01490              28.00    -9800.00
01491              24.00    -9600.00
01492              32.00    -9600.00
01493              36.00    -9600.00
01494              32.00    -9600.00
01495              28.00    -9200.00
01496              22.00    -9200.00
01497              28.00    -9200.00
01498              28.00    -9000.00
01499              32.00    -8800.00
01500              28.00    -8800.00
01501              24.00    -8400.00
01502              24.00    -8400.00
01503              22.00    -8400.00
01504              24.00    -8200.00
01505              26.00    -8200.00
01506              24.00    -8000.00
01507              26.00    -8000.00
01508              22.00    -7600.00
01509              18.00    -7600.00
01510              16.00    -7400.00
01511              22.00    -7200.00
01512              22.00    -7200.00
01513              22.00    -7000.00
01514              20.00    -6800.00
01515              16.00    -6800.00
01516              14.00    -6800.00
01517              14.00    -6400.00
01518              16.00    -6400.00
01519              20.00    -6000.00
01520              20.00    -6000.00
01521              14.00    -5800.00
01522              14.00    -5600.00
01523              12.00    -5400.00
01524              12.00    -5200.00
01525              12.00    -5200.00
01526              14.00    -5000.00
01527              12.00    -4800.00
01528              12.00    -4800.00
01529               6.00    -4400.00
01530               6.00    -4200.00
01531               8.00    -4200.00
01532               8.00    -4000.00
01533              12.00    -3800.00
01534               8.00    -3600.00
01535               4.00    -3400.00
01536               4.00    -3200.00
01537               2.00    -3000.00
01538               6.00    -2800.00
01539               4.00    -2800.00
01540               6.00    -2600.00
01541               2.00    -2400.00
01542               0.00    -2400.00
01543              -2.00    -2000.00
01544              -2.00    -1800.00
01545              -2.00    -1600.00
01546               0.00    -1400.00
01547              -2.00    -1200.00
01548              -2.00    -1200.00
01549              -6.00    -1000.00
01550              -8.00     -800.00
01551              -8.00     -600.00
01552              -6.00     -400.00
01553              -2.00     -200.00
01554              -4.00        0.00
01555              -4.00      200.00
01556               8.00      400.00
01557              20.00      600.00
01558             -10.00      600.00
01559             -36.00     1000.00
01560             -12.00     1000.00
01561              14.00     1200.00
01562              16.00     1400.00
01563             150.00     1600.00
01564             252.00     2000.00
01565            -204.00     2200.00
01566            -248.00     2400.00
01567            -248.00     2400.00
01568             252.00     2400.00
01569             252.00     2800.00
01570             252.00     2800.00
01571            -248.00     2800.00
01572            -248.00     3200.00
01573             252.00     3200.00
01574             252.00     3800.00
01575            -248.00     3600.00
01576              24.00     3600.00
01577             128.00     4600.00
01578             252.00     4000.00
01579             252.00     4400.00
01580            -248.00     5200.00
01581            -248.00     4400.00
01582             252.00     4800.00
01583              38.00     5800.00
01584            -244.00     4800.00
01585            -228.00     5600.00
01586             -94.00     6200.00
01587             252.00     5200.00
01588             150.00     6200.00
01589            -248.00     6400.00
01590            -248.00     5800.00
01591             246.00     6800.00
01592             252.00     6600.00
01593            -248.00     6800.00
01594            -130.00     7000.00
01595              10.00     7200.00
01596             -46.00     7400.00
01597             188.00     7200.00
01598            -124.00     7800.00
01599            -214.00     7600.00
01600              78.00     7600.00
01601              32.00     8400.00
01602             -66.00     7800.00
01603             -80.00     8200.00
01604             -22.00     8400.00
01605             -36.00     8200.00
01606              -6.00     8800.00
01607              -8.00     8600.00
01608            -154.00     8800.00
01609               4.00     8800.00
01610              56.00     9200.00
01611            -116.00     9200.00
01612             -42.00     9200.00
01613              -4.00     9400.00
01614             -68.00     9400.00
01615             -34.00     9400.00
01616             -16.00     9600.00
01617             -64.00     9600.00
01618             -52.00     9800.00
01619              -8.00    10000.00
01620             -64.00    10000.00
01621             -58.00    10000.00
01622              -8.00    10200.00
01623             -68.00    10200.00
01624             -54.00    10200.00
01625             -12.00    10400.00
01626             -60.00    10400.00
01627             -52.00    10400.00
01628             -20.00    10600.00
01629             -68.00    10800.00
01630             -58.00    10400.00
01631              -4.00    10800.00
01632             -50.00    10800.00
01633             -74.00    11000.00
01634             -32.00    11000.00
01635             -46.00    11000.00
01636             -52.00    11200.00
01637             -26.00    11000.00
01638             -50.00    11200.00
01639             -64.00    11200.00
01640             -34.00    11200.00
01641             -44.00    11400.00
01642             -60.00    11200.00
01643             -36.00    11200.00
01644             -42.00    11200.00
01645             -52.00    11200.00
01646             -36.00    11200.00
01647             -50.00    11200.00
01648             -60.00    11200.00
01649             -34.00    11200.00
01650             -36.00    11200.00
01651             -56.00    11200.00
01652             -42.00    11400.00
01653             -44.00    11200.00
01654             -58.00    11200.00
01655             -42.00    11200.00
01656             -36.00    11200.00
01657             -56.00    11200.00
01658             -42.00    11200.00
01659             -36.00    11200.00
01660             -52.00    11200.00
01661             -48.00    11000.00
01662             -44.00    11000.00
01663             -48.00    11000.00
01664             -36.00    11000.00
01665             -36.00    10800.00
01666             -52.00    10800.00
01667             -48.00    10800.00
01668             -40.00    10800.00
01669             -44.00    10800.00
01670             -36.00    10600.00
01671             -36.00    10400.00
01672             -48.00    10400.00
01673             -42.00    10400.00
01674             -36.00    10400.00
01675             -44.00    10200.00
01676             -42.00    10200.00
01677             -34.00    10200.00
01678             -40.00    10000.00
01679             -40.00    10000.00
01680             -38.00    10000.00
01681             -42.00     9800.00
01682             -42.00     9600.00
01683             -32.00     9400.00
01684             -36.00     9400.00
01685             -40.00     9400.00
01686             -36.00     9200.00
01687             -40.00     9200.00
01688             -36.00     8800.00
01689             -32.00     8800.00
01690             -36.00     8800.00
01691             -34.00     8600.00
01692             -28.00     8600.00
01693             -36.00     8400.00
01694             -40.00     8400.00
01695             -32.00     8400.00
01696             -34.00     8000.00
01697             -30.00     8000.00
01698             -28.00     7800.00
01699             -32.00     7800.00
01700             -34.00     7600.00
01701             -34.00     7400.00
01702             -28.00     7200.00
01703             -26.00     7200.00
01704             -28.00     7000.00
01705             -26.00     7000.00
01706             -26.00     6800.00
01707             -28.00     6400.00
01708             -28.00     6400.00
01709             -28.00     6200.00
01710             -20.00     6000.00
01711             -20.00     6000.00
01712             -26.00     5600.00
01713             -24.00     5600.00
01714             -22.00     5600.00
01715             -20.00     5400.00
01716             -18.00     5200.00
01717             -20.00     4800.00
01718             -18.00     4800.00
01719             -20.00     4600.00
01720             -18.00     4400.00
01721             -20.00     4200.00
01722             -18.00     4000.00
01723             -16.00     3800.00
01724             -10.00     3600.00
01725             -10.00     3600.00
01726             -16.00     3400.00
01727             -16.00     3200.00
01728             -12.00     3200.00
01729             -10.00     2800.00
01730             -10.00     2800.00
01731              -8.00     2400.00
01732             -10.00     2400.00
01733              -8.00     2200.00
01734              -8.00     2000.00
01735              -8.00     2000.00
01736              -4.00     1600.00
01737              -4.00     1400.00
01738              -2.00     1200.00
01739              -2.00     1200.00
01740              -4.00      800.00
01741              -4.00      600.00
01742              -2.00      600.00
01743               0.00      200.00
01744               6.00      200.00
01745               0.00     -200.00
01746               4.00     -200.00
01747              14.00     -400.00
01748              32.00     -600.00
01749              12.00     -800.00
01750             -20.00     -800.00
01751              -8.00    -1000.00
01752              24.00    -1200.00
01753              30.00    -1200.00
01754              38.00    -1600.00
01755             198.00    -1800.00
01756             252.00    -2200.00
01757            -236.00    -2600.00
01758            -248.00    -2600.00
01759            -128.00    -2800.00
01760             252.00    -2800.00
01761             252.00    -2600.00
01762             252.00    -3400.00
01763            -248.00    -3600.00
01764            -248.00    -2800.00
01765             252.00    -4200.00
01766             252.00    -3600.00
01767            -248.00    -3400.00
01768            -248.00    -4800.00
01769             172.00    -4200.00
01770             252.00    -4400.00
01771             252.00    -5200.00
01772            -248.00    -4600.00
01773            -248.00    -5000.00
01774             252.00    -5400.00
01775             252.00    -5200.00
01776            -194.00    -5600.00
01777            -248.00    -5800.00
01778              28.00    -5600.00
01779             252.00    -6000.00
01780             196.00    -6200.00
01781            -248.00    -6400.00
01782            -248.00    -6600.00
01783             252.00    -6400.00
01784             252.00    -6800.00
01785            -128.00    -6800.00
01786            -218.00    -7200.00
01787              14.00    -7200.00
01788             212.00    -7400.00
01789             168.00    -7600.00
01790            -118.00    -7600.00
01791            -124.00    -8000.00
01792             116.00    -8000.00
01793             172.00    -8000.00
01794               4.00    -8200.00
01795             -92.00    -8200.00
01796              22.00    -8400.00
01797             128.00    -8600.00
01798              86.00    -8800.00
01799             -40.00    -8800.00
01800             -52.00    -9000.00
01801              90.00    -9200.00
01802             124.00    -9200.00
01803              16.00    -9200.00
01804             -36.00    -9600.00
01805              22.00    -9400.00
01806              84.00    -9600.00
01807              58.00    -9600.00
01808               8.00   -10000.00
01809              10.00   -10000.00
01810              48.00   -10000.00
01811              68.00   -10000.00
01812              32.00   -10200.00
01813               8.00   -10200.00
01814              30.00   -10400.00
01815              58.00   -10400.00
01816              54.00   -10400.00
01817              30.00   -10600.00
01818              20.00   -10600.00
01819              36.00   -10600.00
01820              48.00   -10800.00
01821              40.00   -10800.00
01822              30.00   -10800.00
01823              44.00   -11000.00
01824              50.00   -10800.00
01825              36.00   -11200.00
01826              30.00   -11000.00
01827              36.00   -11200.00
01828              44.00   -11200.00
01829              48.00   -11200.00
01830              40.00   -11200.00
01831              36.00   -11400.00
01832              32.00   -11400.00
01833              38.00   -11400.00
01834              44.00   -11400.00
01835              44.00   -11400.00
01836              44.00   -11400.00
01837              38.00   -11400.00
01838              36.00   -11400.00
01839              36.00   -11400.00
01840              36.00   -11400.00
01841              40.00   -11400.00
01842              46.00   -11400.00
01843              44.00   -11400.00
01844              40.00   -11400.00
01845              36.00   -11400.00
01846              36.00   -11400.00
01847              40.00   -11400.00
01848              44.00   -11200.00
01849              42.00   -11200.00
01850              38.00   -11200.00
01851              38.00   -11200.00
01852              34.00   -11200.00
01853              38.00   -11200.00
01854              38.00   -11000.00
01855              38.00   -10800.00
01856              42.00   -10800.00
01857              38.00   -10800.00
01858              34.00   -10800.00
01859              32.00   -10800.00
01860              36.00   -10800.00
01861              40.00   -10600.00
01862              44.00   -10600.00
01863              38.00   -10600.00
01864              34.00   -10400.00
01865              30.00   -10400.00
01866              32.00   -10400.00
01867              32.00   -10400.00
01868              34.00   -10400.00
01869              36.00   -10200.00
01870              32.00   -10000.00
01871              30.00   -10000.00
01872              30.00   -10000.00
01873              28.00    -9800.00
01874              32.00    -9600.00
01875              36.00    -9600.00
01876              32.00    -9600.00
01877              32.00    -9600.00
01878              26.00    -9200.00
01879              24.00    -9200.00
01880              28.00    -9000.00
01881              28.00    -9000.00
01882              28.00    -8800.00
01883              28.00    -8800.00
01884              28.00    -8600.00
01885              22.00    -8400.00
01886              20.00    -8400.00
01887              22.00    -8200.00
01888              24.00    -8200.00
01889              28.00    -8000.00
01890              24.00    -7800.00
01891              20.00    -7800.00
01892              16.00    -7600.00
01893              20.00    -7600.00
01894              22.00    -7400.00
01895              22.00    -7200.00
01896              22.00    -7200.00
01897              18.00    -6800.00
01898              14.00    -6800.00
01899              12.00    -6600.00
01900              16.00    -6600.00
01901              16.00    -6400.00
01902              18.00    -6000.00
01903              16.00    -6000.00
01904              12.00    -5800.00
01905              12.00    -5600.00
01906               8.00    -5400.00
01907              12.00    -5200.00
01908              14.00    -5200.00
01909              16.00    -5000.00
01910              12.00    -4800.00
01911              12.00    -4600.00
01912               6.00    -4400.00
01913               6.00    -4200.00
01914               6.00    -4200.00
01915               8.00    -3800.00
01916              10.00    -3800.00
01917               8.00    -3600.00
01918               4.00    -3400.00
01919               4.00    -3200.00
01920               4.00    -3000.00
01921               4.00    -2800.00
01922               4.00    -2800.00
01923               4.00    -2400.00
01924               0.00    -2400.00
01925               0.00    -2200.00
01926              -2.00    -2000.00
01927              -2.00    -1800.00
01928               0.00    -1600.00
01929               0.00    -1200.00
01930              -2.00    -1200.00
01931              -2.00    -1000.00
01932              -8.00    -1000.00
01933              -6.00     -800.00
01934              -4.00     -400.00
01935              -4.00     -400.00
01936              -2.00        0.00
01937              -4.00        0.00
01938              -2.00      200.00
01939              18.00      400.00
01940              18.00      600.00
01941             -18.00      800.00
01942             -32.00     1000.00
01943              -4.00     1200.00
01944              16.00     1200.00
01945              28.00     1400.00
01946             230.00     1800.00
01947             252.00     2200.00
01948            -248.00     2200.00
01949            -248.00     2400.00
01950             -80.00     2200.00
01951             252.00     2600.00
01952             252.00     2800.00
01953              84.00     2800.00
01954            -248.00     3000.00
01955              46.00     3600.00
01956             252.00     3200.00
01957            -222.00     4000.00
01958            -248.00     3600.00
01959             192.00     3800.00
01960              54.00     4400.00
01961             252.00     3800.00
01962              86.00     4800.00
01963            -248.00     5200.00
01964             134.00     4400.00
01965             252.00     5200.00
01966            -146.00     5400.00
01967            -222.00     4600.00
01968            -232.00     6000.00
01969              36.00     6000.00
01970             252.00     5400.00
01971               8.00     6600.00
01972            -248.00     6000.00
01973            -230.00     6000.00
01974             252.00     6800.00
01975             130.00     6600.00
01976            -248.00     6800.00
01977             -26.00     7000.00
01978             -44.00     7200.00
01979              28.00     7200.00
01980             156.00     7400.00
01981            -228.00     8000.00
01982            -122.00     7400.00
01983             102.00     7800.00
01984              -4.00     8200.00
01985             -80.00     7800.00
01986             -64.00     8400.00
01987             -16.00     8400.00
01988             -42.00     8200.00
01989              14.00     8600.00
01990             -58.00     8600.00
01991            -138.00     8800.00
01992              60.00     8800.00
01993               0.00     9200.00
01994            -120.00     9000.00
01995             -12.00     9200.00
01996             -28.00     9600.00
01997             -66.00     9200.00
01998             -18.00     9600.00
01999             -24.00     9600.00
02000             -70.00     9600.00
02001             -36.00    10000.00
02002             -20.00    10000.00
02003             -82.00    10000.00
02004             -36.00    10000.00
02005             -16.00    10200.00
02006             -64.00    10400.00
02007             -26.00    10200.00
02008             -22.00    10400.00
02009             -78.00    10400.00
02010             -48.00    10400.00
02011             -30.00    10800.00
02012             -64.00    10400.00
02013             -36.00    10800.00
02014             -10.00    11000.00
02015             -68.00    10800.00
02016             -68.00    10800.00
02017             -24.00    11200.00
02018             -54.00    11000.00
02019             -48.00    11000.00
02020             -28.00    11200.00
02021             -60.00    11200.00
02022             -60.00    11200.00
02023             -28.00    11400.00
02024             -50.00    11200.00
02025             -60.00    11200.00
02026             -36.00    11200.00
02027             -48.00    11200.00
02028             -48.00    11200.00
02029             -36.00    11200.00
02030             -60.00    11200.00
02031             -60.00    11200.00
02032             -28.00    11200.00
02033             -44.00    11400.00
02034             -54.00    11400.00
02035             -36.00    11400.00
02036             -52.00    11200.00
02037             -56.00    11400.00
02038             -36.00    11200.00
02039             -44.00    11200.00
02040             -58.00    11200.00
02041             -34.00    11200.00
02042             -42.00    11200.00
02043             -56.00    11200.00
02044             -44.00    11200.00
02045             -46.00    11000.00
02046             -46.00    11000.00
02047             -34.00    11000.00
02048             -42.00    11000.00
02049             -56.00    10800.00
02050             -44.00    11000.00
02051             -42.00    10800.00
02052             -48.00    10800.00
02053             -36.00    10400.00
02054             -38.00    10600.00
02055             -50.00    10400.00
02056             -38.00    10400.00
02057             -40.00    10400.00
02058             -48.00    10200.00
02059             -42.00    10200.00
02060             -34.00    10000.00
02061             -36.00    10000.00
02062             -40.00    10000.00
02063             -40.00    10000.00
02064             -44.00     9800.00
02065             -40.00     9600.00
02066             -32.00     9600.00
02067             -36.00     9400.00
02068             -42.00     9400.00
02069             -38.00     9400.00
02070             -42.00     9200.00
02071             -36.00     8800.00
02072             -32.00     9000.00
02073             -36.00     8800.00
02074             -32.00     8800.00
02075             -34.00     8600.00
02076             -42.00     8400.00
02077             -36.00     8400.00
02078             -26.00     8200.00
02079             -32.00     8000.00
02080             -32.00     7800.00
02081             -30.00     7600.00
02082             -32.00     7600.00
02083             -34.00     7600.00
02084             -32.00     7600.00
02085             -32.00     7200.00
02086             -28.00     7000.00
02087             -26.00     7000.00
02088             -24.00     6800.00
02089             -28.00     6600.00
02090             -30.00     6400.00
02091             -28.00     6200.00
02092             -24.00     6200.00
02093             -20.00     6000.00
02094             -24.00     6000.00
02095             -28.00     5800.00
02096             -26.00     5400.00
02097             -24.00     5400.00
02098             -20.00     5200.00
02099             -18.00     5000.00
02100             -18.00     4800.00
02101             -20.00     4800.00
02102             -20.00     4600.00
02103             -20.00     4400.00
02104             -20.00     4400.00
02105             -16.00     4000.00
02106             -10.00     3800.00
02107             -12.00     3800.00
02108             -16.00     3600.00
02109             -12.00     3200.00
02110             -16.00     3200.00
02111             -16.00     3000.00
02112             -12.00     2800.00
02113             -10.00     2600.00
02114              -8.00     2400.00
02115              -8.00     2200.00
02116             -10.00     2000.00
02117              -8.00     2000.00
02118             -10.00     1600.00
02119              -8.00     1600.00
02120               0.00     1400.00
02121              -2.00     1200.00
02122              -6.00     1000.00
02123              -8.00      800.00
02124              -2.00      600.00
02125               0.00      600.00
02126               0.00      400.00
02127               0.00        0.00
02128               4.00     -200.00
02129               6.00     -400.00
02130              20.00     -400.00
02131              32.00     -600.00
02132               0.00     -800.00
02133             -20.00    -1000.00
02134               6.00    -1200.00
02135              30.00    -1200.00
02136              28.00    -1400.00
02137              64.00    -1600.00
02138             252.00    -1800.00
02139             198.00    -2400.00
02140            -248.00    -2600.00
02141            -248.00    -2600.00
02142              56.00    -2800.00
02143             252.00    -2600.00
02144             252.00    -2800.00
02145             230.00    -3600.00
02146            -248.00    -3200.00
02147            -248.00    -3200.00
02148             252.00    -4400.00
02149             220.00    -3400.00
02150            -248.00    -4000.00
02151            -130.00    -4800.00
02152             224.00    -4000.00
02153             252.00    -4400.00
02154              84.00    -5000.00
02155            -248.00    -4400.00
02156             -82.00    -5200.00
02157             252.00    -5200.00
02158             212.00    -5200.00
02159            -248.00    -5800.00
02160            -248.00    -5600.00
02161             166.00    -5600.00
02162             252.00    -6200.00
02163              68.00    -6200.00
02164            -248.00    -6400.00
02165            -162.00    -6400.00
02166             252.00    -6600.00
02167             244.00    -6800.00
02168            -216.00    -7000.00
02169            -162.00    -7400.00
02170              84.00    -7200.00
02171             234.00    -7400.00
02172              94.00    -7600.00
02173            -164.00    -7600.00
02174             -58.00    -8000.00
02175             160.00    -8000.00
02176             132.00    -8000.00
02177             -44.00    -8200.00
02178             -72.00    -8200.00
02179              68.00    -8400.00
02180             126.00    -8600.00
02181              44.00    -8800.00
02182             -64.00    -8800.00
02183             -16.00    -9000.00
02184             126.00    -9200.00
02185              96.00    -9200.00
02186             -20.00    -9400.00
02187             -28.00    -9400.00
02188              48.00    -9400.00
02189              92.00    -9600.00
02190              48.00    -9800.00
02191              -8.00    -9800.00
02192              14.00   -10000.00
02193              64.00    -9800.00
02194              66.00   -10000.00
02195              22.00   -10200.00
02196               6.00   -10200.00
02197              38.00   -10200.00
02198              68.00   -10400.00
02199              48.00   -10400.00
02200              28.00   -10600.00
02201              28.00   -10600.00
02202              38.00   -10600.00
02203              48.00   -10800.00
02204              40.00   -10600.00
02205              30.00   -10800.00
02206              44.00   -10800.00
02207              48.00   -11000.00
02208              28.00   -11000.00
02209              28.00   -11000.00
02210              38.00   -11200.00
02211              46.00   -11200.00
02212              54.00   -11200.00
02213              44.00   -11200.00
02214              26.00   -11400.00
02215              24.00   -11400.00
02216              40.00   -11200.00
02217              52.00   -11200.00
02218              46.00   -11200.00
02219              42.00   -11400.00
02220              32.00   -11400.00
02221              32.00   -11600.00
02222              38.00   -11400.00
02223              38.00   -11400.00
02224              40.00   -11200.00
02225              46.00   -11400.00
02226              38.00   -11400.00
02227              32.00   -11400.00
02228              36.00   -11400.00
02229              38.00   -11400.00
02230              38.00   -11400.00
02231              42.00   -11400.00
02232              40.00   -11200.00
02233              38.00   -11200.00
02234              38.00   -11200.00
02235              36.00   -11200.00
02236              36.00   -11200.00
02237              38.00   -11200.00
02238              40.00   -11000.00
02239              38.00   -11000.00
02240              40.00   -11000.00
02241              32.00   -10800.00
02242              30.00   -10800.00
02243              36.00   -10800.00
02244              38.00   -10600.00
02245              38.00   -10600.00
02246              36.00   -10600.00
02247              36.00   -10600.00
02248              34.00   -10400.00
02249              32.00   -10400.00
02250              36.00   -10400.00
02251              36.00   -10200.00
02252              38.00   -10000.00
02253              32.00   -10000.00
02254              30.00   -10000.00
02255              30.00    -9800.00
02256              30.00    -9800.00
02257              30.00    -9800.00
02258              36.00    -9600.00
02259              36.00    -9400.00
02260              28.00    -9200.00
02261              28.00    -9200.00
02262              24.00    -9200.00
02263              28.00    -9200.00
02264              30.00    -8800.00
02265              32.00    -8800.00
02266              28.00    -8800.00
02267              28.00    -8400.00
02268              24.00    -8600.00
02269              22.00    -8200.00
02270              26.00    -8200.00
02271              28.00    -8000.00
02272              26.00    -8000.00
02273              22.00    -7800.00
02274              20.00    -7600.00
02275              20.00    -7400.00
02276              20.00    -7400.00
02277              22.00    -7200.00
02278              22.00    -7200.00
02279              22.00    -6800.00
02280              18.00    -6800.00
02281              14.00    -6800.00
02282              14.00    -6600.00
02283              16.00    -6400.00
02284              18.00    -6000.00
02285              16.00    -6000.00
02286              16.00    -6000.00
02287              12.00    -5600.00
02288              10.00    -5400.00
02289              12.00    -5400.00
02290              12.00    -5200.00
02291              14.00    -5000.00
02292              12.00    -5000.00
02293              12.00    -4800.00
02294               6.00    -4600.00
02295               4.00    -4400.00
02296               6.00    -4400.00
02297               8.00    -4000.00
02298              10.00    -4000.00
02299               6.00    -3600.00
02300               4.00    -3600.00
02301               4.00    -3400.00
02302               2.00    -3200.00
02303               4.00    -3000.00
02304               6.00    -2800.00
02305               6.00    -2600.00
02306               4.00    -2600.00
02307               0.00    -2400.00
02308              -2.00    -2000.00
02309              -2.00    -1800.00
02310              -2.00    -1600.00
02311               0.00    -1600.00
02312               0.00    -1200.00
02313               0.00    -1200.00
02314              -4.00    -1000.00
02315              -4.00     -800.00
02316              -6.00     -600.00
02317              -4.00     -400.00
02318              -2.00     -400.00
02319              -2.00        0.00
02320              -2.00        0.00
02321               2.00      400.00
02322              22.00      600.00
02323               8.00      600.00
02324             -28.00     1000.00
02325             -26.00      800.00
02326               8.00     1200.00
02327              20.00     1400.00
02328              60.00     1600.00
02329             252.00     2000.00
02330             112.00     2000.00
02331            -248.00     2200.00
02332            -248.00     2400.00
02333              84.00     2200.00
02334             252.00     2600.00
02335             252.00     2800.00
02336            -248.00     2800.00
02337            -248.00     3200.00
02338             252.00     3200.00
02339             252.00     3600.00
02340            -248.00     3800.00
02341            -248.00     3600.00
02342             230.00     4400.00
02343              62.00     4400.00
02344             252.00     3800.00
02345            -248.00     5200.00
02346            -248.00     4800.00
02347             252.00     4400.00
02348             252.00     5600.00
02349            -234.00     5200.00
02350            -210.00     4800.00
02351            -212.00     6200.00
02352             174.00     5400.00
02353             252.00     5600.00
02354            -132.00     6600.00
02355            -248.00     6000.00
02356             -40.00     6400.00
02357             252.00     7000.00
02358             -92.00     6400.00
02359            -248.00     7000.00
02360              30.00     7000.00
02361             -80.00     7400.00
02362             118.00     7000.00
02363              62.00     7600.00
02364            -248.00     7800.00
02365             -20.00     7400.00
02366              92.00     8200.00
02367             -40.00     8000.00
02368             -84.00     8000.00
02369             -48.00     8600.00
02370             -18.00     8000.00
02371             -36.00     8400.00
02372              20.00     8600.00
02373            -106.00     8600.00
02374             -90.00     8800.00
02375              80.00     8800.00
02376             -60.00     9200.00
02377             -90.00     9000.00
02378               6.00     9200.00
02379             -52.00     9600.00
02380             -56.00     9400.00
02381             -18.00     9800.00
02382             -40.00     9600.00
02383             -68.00     9600.00
02384             -16.00    10000.00
02385             -30.00    10000.00
02386             -84.00    10200.00
02387             -18.00    10200.00
02388             -32.00    10200.00
02389             -72.00    10000.00
02390             -20.00    10400.00
02391             -40.00    10400.00
02392             -68.00    10400.00
02393             -24.00    10800.00
02394             -42.00    10600.00
02395             -76.00    10600.00
02396             -20.00    10800.00
02397             -18.00    11000.00
02398             -74.00    11000.00
02399             -48.00    10800.00
02400             -30.00    11000.00
02401             -60.00    11000.00
02402             -36.00    11000.00
02403             -32.00    11000.00
02404             -66.00    11200.00
02405             -48.00    11200.00
02406             -34.00    11200.00
02407             -58.00    11200.00
02408             -48.00    11200.00
02409             -34.00    11200.00
02410             -52.00    11200.00
02411             -42.00    11200.00
02412             -38.00    11200.00
02413             -64.00    11200.00
02414             -46.00    11200.00
02415             -32.00    11200.00
02416             -52.00    11200.00
02417             -50.00    11200.00
02418             -40.00    11400.00
02419             -54.00    11200.00
02420             -48.00    11200.00
02421             -34.00    11200.00
02422             -52.00    11200.00
02423             -50.00    11200.00
02424             -36.00    11000.00
02425             -44.00    11200.00
02426             -52.00    11200.00
02427             -44.00    11200.00
02428             -44.00    11000.00
02429             -44.00    11000.00
02430             -34.00    10800.00
02431             -44.00    10800.00
02432             -52.00    10800.00
02433             -40.00    10800.00
02434             -44.00    10800.00
02435             -44.00    10600.00
02436             -34.00    10400.00
02437             -44.00    10400.00
02438             -50.00    10400.00
02439             -36.00    10200.00
02440             -44.00    10400.00
02441             -44.00    10200.00
02442             -34.00    10000.00
02443             -34.00    10200.00
02444             -40.00    10000.00
02445             -38.00     9800.00
02446             -40.00    10000.00
02447             -44.00     9600.00
02448             -34.00     9600.00
02449             -32.00     9400.00
02450             -38.00     9400.00
02451             -36.00     9200.00
02452             -40.00     9200.00
02453             -40.00     9200.00
02454             -32.00     9000.00
02455             -34.00     8800.00
02456             -36.00     8600.00
02457             -32.00     8600.00
02458             -32.00     8400.00
02459             -36.00     8400.00
02460             -32.00     8400.00
02461             -32.00     8200.00
02462             -34.00     8000.00
02463             -24.00     7800.00
02464             -28.00     7800.00
02465             -32.00     7600.00
02466             -32.00     7600.00
02467             -28.00     7400.00
02468             -28.00     7200.00
02469             -28.00     7000.00
02470             -26.00     7000.00
02471             -24.00     6800.00
02472             -28.00     6800.00
02473             -28.00     6400.00
02474             -26.00     6400.00
02475             -24.00     6200.00
02476             -20.00     6000.00
02477             -20.00     5800.00
02478             -24.00     5800.00
02479             -22.00     5400.00
02480             -24.00     5200.00
02481             -18.00     5200.00
02482             -20.00     5200.00
02483             -20.00     4800.00
02484             -16.00     4800.00
02485             -18.00     4400.00
02486             -26.00     4400.00
02487             -24.00     4000.00
02488             -24.00     4200.00
02489              -4.00     3800.00
02490               6.00     3600.00
02491             -20.00     3400.00
02492             -34.00     3200.00
02493             -18.00     3000.00
02494               2.00     3000.00
02495               0.00     2800.00
02496             -10.00     2600.00
02497             -20.00     2400.00
02498             -12.00     2200.00
02499               2.00     2000.00
02500              -4.00     2000.00
02501             -10.00     1600.00
02502             -10.00     1600.00
02503              -4.00     1200.00
02504               2.00     1200.00
02505              -2.00     1000.00
02506             -10.00      800.00
02507              -4.00      600.00
02508               4.00      400.00
02509               0.00        0.00
02510               4.00        0.00
02511               6.00     -200.00
02512               6.00     -200.00
02513              28.00     -600.00
02514              30.00     -800.00
02515             -10.00     -800.00
02516             -20.00     -800.00
02517              16.00    -1200.00
02518              32.00    -1200.00
02519              30.00    -1600.00
02520             108.00    -1600.00
02521             252.00    -2000.00
02522              46.00    -2400.00
02523            -248.00    -2400.00
02524            -248.00    -2600.00
02525             194.00    -2800.00
02526             252.00    -2600.00
02527             252.00    -2800.00
02528             -96.00    -3600.00
02529            -248.00    -2800.00
02530             238.00    -3600.00
02531             252.00    -4200.00
02532            -248.00    -3400.00
02533            -248.00    -4200.00
02534              30.00    -4800.00
02535             252.00    -4000.00
02536             252.00    -5000.00
02537            -168.00    -4800.00
02538            -248.00    -4400.00
02539             168.00    -5400.00
02540             252.00    -5200.00
02541              40.00    -5200.00
02542            -248.00    -5800.00
02543            -178.00    -5600.00
02544             252.00    -5800.00
02545             252.00    -6200.00
02546             -72.00    -6400.00
02547            -248.00    -6400.00
02548               0.00    -6600.00
02549             252.00    -6800.00
02550              88.00    -6800.00
02551            -248.00    -7200.00
02552             -96.00    -7200.00
02553             144.00    -7200.00
02554             230.00    -7600.00
02555               4.00    -7600.00
02556            -178.00    -7600.00
02557              14.00    -8000.00
02558             182.00    -8000.00
02559              86.00    -8200.00
02560             -80.00    -8200.00
02561             -42.00    -8400.00
02562             100.00    -8600.00
02563             118.00    -8800.00
02564              12.00    -9000.00
02565             -74.00    -9000.00
02566              22.00    -9000.00
02567             134.00    -9200.00
02568              66.00    -9200.00
02569             -28.00    -9400.00
02570             -10.00    -9600.00
02571              68.00    -9600.00
02572              78.00    -9600.00
02573              28.00    -9800.00
02574               4.00    -9800.00
02575              30.00   -10000.00
02576              66.00   -10000.00
02577              54.00   -10200.00
02578              12.00   -10200.00
02579              20.00   -10400.00
02580              54.00   -10400.00
02581              60.00   -10400.00
02582              40.00   -10400.00
02583              22.00   -10600.00
02584              28.00   -10600.00
02585              48.00   -10800.00
02586              50.00   -10600.00
02587              32.00   -10800.00
02588              36.00   -10800.00
02589              50.00   -10800.00
02590              42.00   -11000.00
02591              28.00   -11000.00
02592              36.00   -11200.00
02593              40.00   -11000.00
02594              48.00   -11200.00
02595              48.00   -11200.00
02596              38.00   -11200.00
02597              30.00   -11200.00
02598              36.00   -11400.00
02599              40.00   -11400.00
02600              42.00   -11200.00
02601              44.00   -11400.00
02602              40.00   -11400.00
02603              36.00   -11400.00
02604              38.00   -11400.00
02605              36.00   -11400.00
02606              38.00   -11200.00
02607              44.00   -11400.00
02608              44.00   -11400.00
02609              38.00   -11400.00
02610              36.00   -11400.00
02611              36.00   -11400.00
02612              36.00   -11400.00
02613              42.00   -11400.00
02614              42.00   -11200.00
02615              38.00   -11200.00
02616              38.00   -11200.00
02617              36.00   -11200.00
02618              32.00   -11200.00
02619              38.00   -11200.00
02620              38.00   -11000.00
02621              40.00   -10800.00
02622              38.00   -10800.00
02623              36.00   -10800.00
02624              32.00   -10800.00
02625              32.00   -10800.00
02626              38.00   -10600.00
02627              38.00   -10600.00
02628              38.00   -10600.00
02629              38.00   -10600.00
02630              30.00   -10600.00
02631              30.00   -10400.00
02632              32.00   -10400.00
02633              32.00   -10400.00
02634              36.00   -10200.00
02635              38.00   -10200.00
02636              30.00   -10000.00
02637              28.00    -9800.00
02638              28.00    -9800.00
02639              30.00    -9600.00
02640              36.00    -9600.00
02641              36.00    -9600.00
02642              32.00    -9600.00
02643              28.00    -9200.00
02644              24.00    -9200.00
02645              28.00    -9200.00
02646              28.00    -9000.00
02647              28.00    -8800.00
02648              30.00    -8800.00
02649              30.00    -8800.00
02650              26.00    -8400.00
02651              22.00    -8400.00
02652              22.00    -8400.00
02653              26.00    -8200.00
02654              28.00    -8000.00
02655              28.00    -7800.00
02656              22.00    -7600.00
02657              20.00    -7600.00
02658              20.00    -7400.00
02659              22.00    -7400.00
02660              24.00    -7200.00
02661              22.00    -7000.00
02662              22.00    -6800.00
02663              20.00    -6800.00
02664              16.00    -6600.00
02665              14.00    -6600.00
02666              16.00    -6400.00
02667              20.00    -6000.00
02668              20.00    -6000.00
02669              16.00    -5800.00
02670               8.00    -5800.00
02671              12.00    -5400.00
02672              12.00    -5200.00
02673              12.00    -5200.00
02674              16.00    -5000.00
02675               8.00    -5000.00
02676               8.00    -4800.00
02677              12.00    -4400.00
02678               6.00    -4400.00
02679               6.00    -4200.00
02680              12.00    -4000.00
02681               6.00    -3600.00
02682               8.00    -3600.00
02683               6.00    -3400.00
02684               4.00    -3400.00
02685               0.00    -3200.00
02686               6.00    -3000.00
02687               6.00    -2800.00
02688               4.00    -2600.00
02689               0.00    -2400.00
02690              -2.00    -2400.00
02691              -2.00    -2000.00
02692              -2.00    -1800.00
02693               0.00    -1800.00
02694               0.00    -1600.00
02695              -2.00    -1400.00
02696               0.00    -1000.00
02697              -8.00    -1000.00
02698              -8.00     -800.00
02699              -4.00     -600.00
02700              -8.00     -400.00
02701               0.00     -400.00
02702              -2.00        0.00
02703              -4.00        0.00
02704              12.00      400.00
02705              28.00      400.00
02706              -4.00      600.00
02707             -32.00     1000.00
02708             -18.00     1000.00
02709              16.00     1200.00
02710              20.00     1400.00
02711             116.00     1600.00
02712             252.00     2000.00
02713             -92.00     2200.00
02714            -248.00     2400.00
02715            -248.00     2200.00
02716             208.00     2400.00
02717             252.00     2800.00
02718             252.00     2800.00
02719            -248.00     2800.00
02720            -248.00     3200.00
02721             252.00     3200.00
02722             252.00     3600.00
02723            -248.00     3800.00
02724            -100.00     3600.00
02725             178.00     4400.00
02726             180.00     4000.00
02727             252.00     4400.00
02728            -248.00     5200.00
02729            -248.00     4600.00
02730             252.00     4800.00
02731             154.00     5600.00
02732            -248.00     5000.00
02733            -232.00     5400.00
02734            -144.00     6200.00
02735             252.00     5400.00
02736             208.00     6000.00
02737            -248.00     6600.00
02738            -248.00     5800.00
02739             150.00     6600.00
02740             252.00     6800.00
02741            -248.00     6600.00
02742            -188.00     7000.00
02743              26.00     7000.00
02744             -70.00     7400.00
02745             176.00     7200.00
02746             -66.00     7800.00
02747            -248.00     7800.00
02748              54.00     7600.00
02749              56.00     8400.00
02750             -66.00     7800.00
02751             -86.00     8000.00
02752             -26.00     8600.00
02753             -34.00     8000.00
02754             -18.00     8600.00
02755              10.00     8800.00
02756            -148.00     8600.00
02757             -28.00     8800.00
02758              76.00     8800.00
02759            -106.00     9200.00
02760             -64.00     9000.00
02761              -2.00     9400.00
02762             -64.00     9400.00
02763             -42.00     9400.00
02764             -12.00     9800.00
02765             -58.00     9600.00
02766             -62.00     9800.00
02767              -4.00    10000.00
02768             -54.00    10000.00
02769             -68.00    10200.00
02770              -2.00    10200.00
02771             -58.00    10200.00
02772             -64.00    10200.00
02773             -10.00    10400.00
02774             -54.00    10600.00
02775             -60.00    10400.00
02776             -20.00    10400.00
02777             -60.00    10800.00
02778             -66.00    10600.00
02779              -6.00    11000.00
02780             -36.00    11000.00
02781             -78.00    11000.00
02782             -36.00    11000.00
02783             -40.00    11000.00
02784             -58.00    11000.00
02785             -26.00    11200.00
02786             -44.00    11200.00
02787             -68.00    11000.00
02788             -32.00    11200.00
02789             -36.00    11200.00
02790             -66.00    11200.00
02791             -38.00    11200.00
02792             -40.00    11200.00
02793             -52.00    11200.00
02794             -36.00    11200.00
02795             -50.00    11200.00
02796             -66.00    11200.00
02797             -36.00    11400.00
02798             -32.00    11200.00
02799             -56.00    11200.00
02800             -44.00    11400.00
02801             -42.00    11200.00
02802             -56.00    11400.00
02803             -42.00    11200.00
02804             -36.00    11200.00
02805             -56.00    11000.00
02806             -44.00    11200.00
02807             -36.00    11200.00
02808             -52.00    11000.00
02809             -48.00    11000.00
02810             -42.00    11000.00
02811             -48.00    11000.00
02812             -40.00    11000.00
02813             -36.00    11000.00
02814             -52.00    10800.00
02815             -50.00    10800.00
02816             -42.00    10800.00
02817             -44.00    10600.00
02818             -42.00    10400.00
02819             -36.00    10600.00
02820             -50.00    10400.00
02821             -42.00    10400.00
02822             -38.00    10400.00
02823             -44.00    10400.00
02824             -42.00    10200.00
02825             -36.00    10000.00
02826             -34.00    10000.00
02827             -36.00    10000.00
02828             -42.00     9800.00
02829             -44.00    10000.00
02830             -38.00     9600.00
02831             -34.00     9600.00
02832             -34.00     9400.00
02833             -36.00     9400.00
02834             -34.00     9200.00
02835             -36.00     9200.00
02836             -36.00     9200.00
02837             -32.00     9000.00
02838             -36.00     8800.00
02839             -34.00     8600.00
02840             -28.00     8600.00
02841             -34.00     8600.00
02842             -40.00     8400.00
02843             -32.00     8400.00
02844             -28.00     8200.00
02845             -28.00     8000.00
02846             -28.00     7800.00
02847             -30.00     7800.00
02848             -34.00     7600.00
02849             -28.00     7400.00
02850             -26.00     7200.00
02851             -26.00     7200.00
02852             -24.00     7200.00
02853             -26.00     7000.00
02854             -26.00     6600.00
02855             -24.00     6800.00
02856             -28.00     6600.00
02857             -28.00     6200.00
02858             -22.00     6200.00
02859             -22.00     6000.00
02860             -20.00     5800.00
02861             -24.00     5600.00
02862             -26.00     5400.00
02863             -20.00     5400.00
02864             -20.00     5000.00
02865             -18.00     5000.00
02866             -16.00     4800.00
02867             -24.00     4600.00
02868             -18.00     4400.00
02869             -16.00     4400.00
02870             -20.00     4000.00
02871             -14.00     3800.00
02872             -12.00     3800.00
02873             -16.00     3600.00
02874             -12.00     3600.00
02875             -16.00     3200.00
02876             -16.00     3000.00
02877             -10.00     3000.00
02878             -12.00     2800.00
02879             -10.00     2400.00
02880              -8.00     2400.00
02881             -10.00     2000.00
02882              -8.00     2000.00
02883              -2.00     2000.00
02884               4.00     1600.00
02885             -24.00     1400.00
02886              -8.00     1200.00
02887               4.00     1200.00
02888             -16.00      800.00
02889             -28.00      800.00
02890             -18.00      600.00
02891              62.00      400.00
02892              16.00        0.00
02893             -10.00        0.00
02894             -22.00     -400.00
02895              32.00     -400.00
02896              46.00     -600.00
02897             -24.00     -800.00
02898             -42.00     -800.00
02899              28.00    -1000.00
02900              46.00    -1200.00
02901               0.00    -1200.00
02902              14.00    -1600.00
02903             184.00    -1600.00
02904             252.00    -2200.00
02905            -156.00    -2600.00
02906            -248.00    -2600.00
02907            -220.00    -2800.00
02908             252.00    -2800.00
02909             252.00    -2600.00
02910             252.00    -3200.00
02911            -248.00    -3600.00
02912            -248.00    -2800.00
02913             252.00    -3800.00
02914             252.00    -4000.00
02915            -248.00    -3200.00
02916            -248.00    -4600.00
02917             136.00    -4200.00
02918             252.00    -4000.00
02919             252.00    -5200.00
02920            -248.00    -4600.00
02921            -248.00    -4800.00
02922             252.00    -5600.00
02923             252.00    -5000.00
02924            -128.00    -5600.00
02925            -248.00    -5800.00
02926             -42.00    -5800.00
02927             252.00    -6000.00
02928             252.00    -6200.00
02929            -212.00    -6400.00
02930            -248.00    -6400.00
02931             168.00    -6600.00
02932             252.00    -6800.00
02933             -56.00    -7000.00
02934            -248.00    -7200.00
02935             -36.00    -7200.00
02936             198.00    -7400.00
02937             212.00    -7600.00
02938             -82.00    -7400.00
02939            -160.00    -7800.00
02940              80.00    -8000.00
02941             192.00    -8000.00
02942              36.00    -8200.00
02943            -100.00    -8400.00
02944             -10.00    -8400.00
02945             118.00    -8600.00
02946             106.00    -8800.00
02947             -18.00    -8800.00
02948             -72.00    -9000.00
02949              60.00    -9000.00
02950             132.00    -9200.00
02951              38.00    -9200.00
02952             -34.00    -9400.00
02953               6.00    -9600.00
02954              72.00    -9600.00
02955              68.00    -9800.00
02956              22.00    -9800.00
02957               4.00   -10000.00
02958              36.00   -10000.00
02959              68.00   -10000.00
02960              44.00   -10200.00
02961               8.00   -10400.00
02962              24.00   -10400.00
02963              54.00   -10400.00
02964              56.00   -10600.00
02965              36.00   -10400.00
02966              22.00   -10600.00
02967              30.00   -10600.00
02968              48.00   -10800.00
02969              44.00   -10800.00
02970              32.00   -10800.00
02971              42.00   -10800.00
02972              46.00   -11000.00
02973              34.00   -11000.00
02974              30.00   -11200.00
02975              40.00   -11200.00
02976              44.00   -11200.00
02977              46.00   -11200.00
02978              44.00   -11200.00
02979              38.00   -11200.00
02980              32.00   -11200.00
02981              38.00   -11200.00
02982              40.00   -11400.00
02983              44.00   -11200.00
02984              46.00   -11400.00
02985              42.00   -11400.00
02986              38.00   -11400.00
02987              36.00   -11400.00
02988              38.00   -11400.00
02989              40.00   -11400.00
02990              44.00   -11400.00
02991              40.00   -11400.00
02992              36.00   -11600.00
02993              38.00   -11400.00
02994              36.00   -11400.00
02995              36.00   -11400.00
02996              44.00   -11200.00
02997              44.00   -11200.00
02998              40.00   -11400.00
02999              38.00   -11200.00
03000              32.00   -11200.00
03001              32.00   -11200.00
03002              38.00   -11000.00
03003              40.00   -11000.00
03004              38.00   -11200.00
03005              40.00   -11000.00
03006              36.00   -11000.00
03007              30.00   -11000.00
03008              36.00   -10800.00
03009              38.00   -10800.00
03010              38.00   -10600.00
03011              38.00   -10600.00
03012              32.00   -10600.00
03013              30.00   -10400.00
03014              30.00   -10600.00
03015              32.00   -10400.00
03016              36.00   -10400.00
03017              36.00   -10200.00
03018              36.00   -10000.00
03019              30.00   -10200.00
03020              28.00   -10000.00
03021              28.00    -9800.00
03022              32.00    -9600.00
03023              32.00    -9600.00
03024              34.00    -9600.00
03025              28.00    -9600.00
03026              26.00    -9400.00
03027              28.00    -9200.00
03028              28.00    -9000.00
03029              28.00    -9000.00
03030              30.00    -8800.00
03031              30.00    -8800.00
03032              28.00    -8800.00
03033              24.00    -8600.00
03034              22.00    -8400.00
03035              28.00    -8400.00
03036              24.00    -8200.00
03037              28.00    -8000.00
03038              28.00    -7800.00
03039              20.00    -7800.00
03040              24.00    -7600.00
03041              22.00    -7400.00
03042              16.00    -7400.00
03043              28.00    -7200.00
03044              22.00    -7000.00
03045              16.00    -7000.00
03046              22.00    -6600.00
03047              16.00    -6600.00
03048              14.00    -6600.00
03049              20.00    -6400.00
03050              20.00    -6000.00
03051              18.00    -5800.00
03052              20.00    -5800.00
03053              10.00    -5800.00
03054               8.00    -5400.00
03055              12.00    -5200.00
03056              12.00    -5000.00
03057              14.00    -5000.00
03058              14.00    -4800.00
03059               6.00    -4800.00
03060               6.00    -4400.00
03061               6.00    -4400.00
03062               8.00    -4200.00
03063              10.00    -4000.00
03064               8.00    -3600.00
03065               6.00    -3600.00
03066               6.00    -3400.00
03067               0.00    -3200.00
03068               0.00    -3200.00
03069               4.00    -2800.00
03070               4.00    -2600.00
03071               4.00    -2600.00
03072               6.00    -2400.00
03073              -4.00    -2400.00
03074              -8.00    -2000.00
03075              -2.00    -1800.00
03076               4.00    -1600.00
03077               4.00    -1400.00
03078              -4.00    -1200.00
03079             -12.00    -1000.00
03080             -10.00     -800.00
03081               0.00     -600.00
03082              -4.00     -800.00
03083              -8.00     -200.00
03084              -8.00     -200.00
03085              -8.00        0.00
03086              -2.00      400.00
03087              22.00      400.00
03088              20.00      600.00
03089             -20.00     1000.00
03090             -36.00      800.00
03091              -8.00     1200.00
03092              16.00     1200.00
03093              24.00     1400.00
03094             192.00     1600.00
03095             252.00     2000.00
03096            -248.00     2200.00
03097            -248.00     2400.00
03098            -164.00     2400.00
03099             252.00     2400.00
03100             252.00     3000.00
03101             252.00     2800.00
03102            -248.00     3000.00
03103            -248.00     3400.00
03104             252.00     3200.00
03105             152.00     4000.00
03106            -248.00     3800.00
03107             126.00     3800.00
03108              92.00     4600.00
03109             252.00     4000.00
03110             240.00     4600.00
03111            -248.00     5400.00
03112             -56.00     4200.00
03113             252.00     5200.00
03114             -58.00     5600.00
03115            -236.00     4800.00
03116            -240.00     6000.00
03117             -26.00     6000.00
03118             252.00     5400.00
03119              82.00     6400.00
03120            -248.00     6200.00
03121            -248.00     6000.00
03122             252.00     7000.00
03123             232.00     6400.00
03124            -248.00     6600.00
03125             -72.00     7000.00
03126             -18.00     7400.00
03127             -10.00     7200.00
03128             178.00     7200.00
03129            -184.00     7800.00
03130            -172.00     7400.00
03131              96.00     7600.00
03132              12.00     8200.00
03133             -80.00     7800.00
03134             -74.00     8400.00
03135             -18.00     8400.00
03136             -42.00     8000.00
03137               6.00     8600.00
03138             -32.00     8600.00
03139            -156.00     8600.00
03140              32.00     8800.00
03141              30.00     9000.00
03142            -124.00     9200.00
03143             -26.00     9000.00
03144             -18.00     9600.00
03145             -74.00     9200.00
03146             -28.00     9400.00
03147             -20.00     9800.00
03148             -68.00     9400.00
03149             -44.00    10000.00
03150             -10.00    10000.00
03151             -74.00    10000.00
03152             -44.00    10200.00
03153              -6.00    10200.00
03154             -76.00    10200.00
03155             -42.00    10000.00
03156             -12.00    10400.00
03157             -66.00    10400.00
03158             -44.00    10400.00
03159             -26.00    10800.00
03160             -72.00    10600.00
03161             -48.00    10600.00
03162              -4.00    10800.00
03163             -58.00    11000.00
03164             -70.00    11000.00
03165             -26.00    11200.00
03166             -50.00    11000.00
03167             -50.00    11000.00
03168             -26.00    11200.00
03169             -52.00    11200.00
03170             -60.00    11200.00
03171             -26.00    11200.00
03172             -50.00    11200.00
03173             -60.00    11200.00
03174             -34.00    11200.00
03175             -42.00    11200.00
03176             -48.00    11200.00
03177             -34.00    11400.00
03178             -58.00    11200.00
03179             -60.00    11200.00
03180             -28.00    11200.00
03181             -40.00    11200.00
03182             -56.00    11200.00
03183             -40.00    11400.00
03184             -44.00    11200.00
03185             -58.00    11400.00
03186             -34.00    11200.00
03187             -42.00    11200.00
03188             -56.00    11200.00
03189             -40.00    11200.00
03190             -40.00    11200.00
03191             -56.00    11000.00
03192             -46.00    11200.00
03193             -44.00    11000.00
03194             -48.00    11000.00
03195             -34.00    11000.00
03196             -40.00    11000.00
03197             -54.00    10800.00
03198             -44.00    10800.00
03199             -42.00    10800.00
03200             -44.00    10600.00
03201             -40.00    10600.00
03202             -40.00    10400.00
03203             -48.00    10400.00
03204             -42.00    10200.00
03205             -36.00    10400.00
03206             -48.00    10200.00
03207             -44.00    10200.00
03208             -34.00    10000.00
03209             -40.00    10000.00
03210             -42.00    10000.00
03211             -40.00    10000.00
03212             -44.00     9600.00
03213             -40.00     9600.00
03214             -32.00     9600.00
03215             -36.00     9400.00
03216             -38.00     9400.00
03217             -34.00     9400.00
03218             -36.00     9200.00
03219             -36.00     9200.00
03220             -32.00     8800.00
03221             -36.00     8600.00
03222             -32.00     8800.00
03223             -28.00     8600.00
03224             -36.00     8400.00
03225             -36.00     8400.00
03226             -32.00     8400.00
03227             -32.00     8000.00
03228             -28.00     8000.00
03229             -26.00     7800.00
03230             -32.00     7600.00
03231             -32.00     7600.00
03232             -28.00     7600.00
03233             -26.00     7200.00
03234             -28.00     7200.00
03235             -26.00     7000.00
03236             -26.00     6800.00
03237             -26.00     6800.00
03238             -28.00     6600.00
03239             -26.00     6400.00
03240             -26.00     6200.00
03241             -20.00     6000.00
03242             -20.00     6000.00
03243             -24.00     5600.00
03244             -22.00     5600.00
03245             -20.00     5400.00
03246             -22.00     5400.00
03247             -18.00     5200.00
03248             -18.00     5000.00
03249             -20.00     4800.00
03250             -18.00     4600.00
03251             -18.00     4400.00
03252             -20.00     4200.00
03253             -18.00     4000.00
03254             -18.00     3800.00
03255             -12.00     3600.00
03256             -14.00     3600.00
03257             -16.00     3400.00
03258             -16.00     3200.00
03259             -12.00     3000.00
03260             -12.00     2800.00
03261              -8.00     2800.00
03262             -10.00     2400.00
03263              -8.00     2200.00
03264             -10.00     2200.00
03265             -10.00     2000.00
03266              -8.00     1600.00
03267              -8.00     1600.00
03268               0.00     1400.00
03269              -2.00     1200.00
03270             -10.00     1000.00
03271             -10.00      800.00
03272              -4.00      600.00
03273              -2.00      400.00
03274               4.00      200.00
03275               2.00      200.00
03276              -2.00     -200.00
03277               4.00     -200.00
03278              20.00     -400.00
03279              32.00     -800.00
03280               6.00     -800.00
03281             -20.00     -800.00
03282              -4.00    -1200.00
03283              30.00    -1200.00
03284              30.00    -1400.00
03285              46.00    -1600.00
03286             234.00    -1800.00
03287             248.00    -2200.00
03288            -248.00    -2600.00
03289            -248.00    -2600.00
03290             -26.00    -2800.00
03291             252.00    -2600.00
03292             252.00    -2600.00
03293             252.00    -3400.00
03294            -248.00    -3200.00
03295            -248.00    -2800.00
03296             252.00    -4200.00
03297             252.00    -3600.00
03298            -248.00    -3600.00
03299            -216.00    -4800.00
03300             206.00    -4000.00
03301             252.00    -4400.00
03302             188.00    -5000.00
03303            -248.00    -4400.00
03304            -210.00    -5200.00
03305             252.00    -5400.00
03306             252.00    -5000.00
03307            -248.00    -5800.00
03308            -248.00    -5600.00
03309             102.00    -5600.00
03310             252.00    -6000.00
03311             134.00    -6200.00
03312            -248.00    -6400.00
03313            -228.00    -6400.00
03314             252.00    -6600.00
03315             252.00    -6800.00
03316            -176.00    -6800.00
03317            -196.00    -7200.00
03318              46.00    -7000.00
03319             228.00    -7400.00
03320             130.00    -7600.00
03321            -148.00    -7400.00
03322             -92.00    -8000.00
03323             142.00    -8000.00
03324             156.00    -8000.00
03325             -26.00    -8200.00
03326             -88.00    -8200.00
03327              44.00    -8400.00
03328             128.00    -8600.00
03329              68.00    -8800.00
03330             -56.00    -9000.00
03331             -38.00    -9000.00
03332             102.00    -9200.00
03333             112.00    -9200.00
03334               0.00    -9400.00
03335             -34.00    -9600.00
03336              36.00    -9600.00
03337              84.00    -9600.00
03338              52.00    -9800.00
03339               6.00    -9800.00
03340              14.00   -10000.00
03341              54.00   -10000.00
03342              66.00   -10200.00
03343              24.00   -10200.00
03344               6.00   -10400.00
03345              38.00   -10400.00
03346              62.00   -10400.00
03347              48.00   -10400.00
03348              28.00   -10400.00
03349              22.00   -10600.00
03350              38.00   -10600.00
03351              54.00   -10800.00
03352              38.00   -10800.00
03353              30.00   -10800.00
03354              44.00   -10800.00
03355              50.00   -10800.00
03356              36.00   -10800.00
03357              30.00   -11200.00
03358              40.00   -11200.00
03359              44.00   -11000.00
03360              50.00   -11200.00
03361              44.00   -11200.00
03362              32.00   -11400.00
03363              32.00   -11200.00
03364              40.00   -11200.00
03365              44.00   -11400.00
03366              46.00   -11200.00
03367              44.00   -11400.00
03368              38.00   -11400.00
03369              38.00   -11400.00
03370              38.00   -11400.00
03371              38.00   -11400.00
03372              44.00   -11200.00
03373              46.00   -11400.00
03374              42.00   -11400.00
03375              38.00   -11400.00
03376              36.00   -11400.00
03377              36.00   -11200.00
03378              38.00   -11400.00
03379              44.00   -11400.00
03380              44.00   -11400.00
03381              38.00   -11200.00
03382              38.00   -11200.00
03383              32.00   -11400.00
03384              36.00   -11200.00
03385              38.00   -11200.00
03386              40.00   -10800.00
03387              38.00   -11000.00
03388              38.00   -11000.00
03389              34.00   -10800.00
03390              30.00   -10800.00
03391              36.00   -10600.00
03392              38.00   -10600.00
03393              38.00   -10800.00
03394              38.00   -10600.00
03395              36.00   -10600.00
03396              30.00   -10400.00
03397              32.00   -10400.00
03398              32.00   -10400.00
03399              32.00   -10400.00
03400              38.00   -10200.00
03401              36.00   -10000.00
03402              28.00   -10000.00
03403              28.00    -9800.00
03404              28.00    -9800.00
03405              32.00    -9800.00
03406              38.00    -9600.00
03407              32.00    -9400.00
03408              28.00    -9400.00
03409              28.00    -9200.00
03410              26.00    -9200.00
03411              28.00    -9000.00
03412              28.00    -9000.00
03413              28.00    -9000.00
03414              28.00    -8800.00
03415              24.00    -8800.00
03416              22.00    -8400.00
03417              22.00    -8400.00
03418              24.00    -8200.00
03419              28.00    -8200.00
03420              28.00    -8000.00
03421              24.00    -7800.00
03422              22.00    -7600.00
03423              20.00    -7600.00
03424              20.00    -7400.00
03425              22.00    -7400.00
03426              22.00    -7200.00
03427              22.00    -7000.00
03428              20.00    -7000.00
03429              16.00    -6600.00
03430              16.00    -6600.00
03431              16.00    -6400.00
03432              18.00    -6200.00
03433              20.00    -6000.00
03434              18.00    -5800.00
03435              14.00    -5800.00
03436              12.00    -5400.00
03437              12.00    -5400.00
03438              12.00    -5200.00
03439              14.00    -5000.00
03440              14.00    -5000.00
03441              12.00    -4800.00
03442               8.00    -4600.00
03443               6.00    -4400.00
03444              10.00    -4000.00
03445               8.00    -4000.00
03446               6.00    -4000.00
03447               8.00    -3600.00
03448               6.00    -3600.00
03449               0.00    -3400.00
03450               2.00    -3200.00
03451               2.00    -3000.00
03452               4.00    -2800.00
03453               6.00    -2800.00
03454               4.00    -2400.00
03455              -2.00    -2200.00
03456              -2.00    -2200.00
03457              -4.00    -1800.00
03458               0.00    -1600.00
03459               0.00    -1600.00
03460              -2.00    -1400.00
03461               0.00    -1200.00
03462              -4.00    -1000.00
03463             -10.00     -800.00
03464              -6.00     -800.00
03465              -4.00     -400.00
03466              -8.00     -400.00
03467              -4.00     -200.00
03468              -2.00     -200.00
03469              -4.00      200.00
03470              20.00      400.00
03471              12.00      600.00
03472             -26.00      800.00
03473             -30.00     1000.00
03474               0.00     1000.00
03475              16.00     1400.00
03476              40.00     1400.00
03477             252.00     1800.00
03478             188.00     2000.00
03479            -248.00     2200.00
03480            -248.00     2400.00
03481              10.00     2400.00
03482             252.00     2400.00
03483             252.00     2800.00
03484            -212.00     2800.00
03485            -248.00     3200.00
03486             252.00     3200.00
03487             252.00     3400.00
03488            -248.00     3800.00
03489            -248.00     3600.00
03490             230.00     4000.00
03491              50.00     4400.00
03492             252.00     3800.00
03493            -106.00     4800.00
03494            -248.00     5000.00
03495             252.00     4400.00
03496             252.00     5400.00
03497            -194.00     5400.00
03498            -224.00     4800.00
03499            -232.00     6000.00
03500             116.00     5800.00
03501             252.00     5600.00
03502             -58.00     6600.00
03503            -248.00     6000.00
03504            -146.00     6200.00
03505             252.00     6800.00
03506              20.00     6400.00
03507            -248.00     6800.00
03508              12.00     7000.00
03509             -64.00     7400.00
03510              78.00     7000.00
03511             114.00     7400.00
03512            -248.00     7800.00
03513             -72.00     7400.00
03514             100.00     8000.00
03515             -26.00     8000.00
03516             -88.00     7800.00
03517             -52.00     8600.00
03518             -16.00     8400.00
03519             -42.00     8400.00
03520              24.00     8800.00
03521             -88.00     8600.00
03522            -124.00     8800.00
03523              78.00     8800.00
03524             -30.00     9200.00
03525            -112.00     9000.00
03526              -4.00     9200.00
03527             -42.00     9600.00
03528             -60.00     9200.00
03529             -16.00     9600.00
03530             -34.00     9600.00
03531             -74.00     9600.00
03532             -26.00    10000.00
03533             -24.00    10000.00
03534             -82.00    10000.00
03535             -24.00    10200.00
03536             -26.00    10200.00
03537             -78.00    10200.00
03538             -24.00    10200.00
03539             -28.00    10400.00
03540             -68.00    10400.00
03541             -32.00    10600.00
03542             -36.00    10800.00
03543             -76.00    10600.00
03544             -28.00    10800.00
03545             -12.00    11000.00
03546             -74.00    10800.00
03547             -56.00    10800.00
03548             -30.00    11200.00
03549             -56.00    11000.00
03550             -40.00    11000.00
03551             -26.00    11200.00
03552             -64.00    11200.00
03553             -48.00    11200.00
03554             -28.00    11200.00
03555             -58.00    11200.00
03556             -52.00    11200.00
03557             -30.00    11600.00
03558             -50.00    11200.00
03559             -44.00    11200.00
03560             -36.00    11200.00
03561             -62.00    11200.00
03562             -50.00    11200.00
03563             -28.00    11400.00
03564             -48.00    11200.00
03565             -50.00    11200.00
03566             -38.00    11200.00
03567             -50.00    11200.00
03568             -50.00    11200.00
03569             -34.00    11200.00
03570             -46.00    11200.00
03571             -50.00    11000.00
03572             -36.00    11200.00
03573             -42.00    11200.00
03574             -52.00    11000.00
03575             -42.00    11000.00
03576             -46.00    11000.00
03577             -44.00    10800.00
03578             -34.00    11000.00
03579             -46.00    11000.00
03580             -52.00    10800.00
03581             -42.00    10800.00
03582             -40.00    10800.00
03583             -44.00    10600.00
03584             -36.00    10400.00
03585             -44.00    10400.00
03586             -48.00    10400.00
03587             -40.00    10400.00
03588             -42.00    10200.00
03589             -50.00    10200.00
03590             -36.00    10000.00
03591             -36.00    10200.00
03592             -40.00    10000.00
03593             -42.00    10000.00
03594             -40.00    10000.00
03595             -44.00     9600.00
03596             -36.00     9600.00
03597             -34.00     9600.00
03598             -40.00     9400.00
03599             -40.00     9400.00
03600             -38.00     9200.00
03601             -42.00     9200.00
03602             -34.00     9000.00
03603             -36.00     8800.00
03604             -36.00     8600.00
03605             -34.00     8800.00
03606             -34.00     8600.00
03607             -36.00     8400.00
03608             -36.00     8400.00
03609             -32.00     8000.00
03610             -28.00     8000.00
03611             -28.00     7800.00
03612             -28.00     7800.00
03613             -34.00     7600.00
03614             -34.00     7400.00
03615             -26.00     7400.00
03616             -26.00     7200.00
03617             -26.00     7200.00
03618             -26.00     6800.00
03619             -26.00     6800.00
03620             -24.00     6800.00
03621             -28.00     6400.00
03622             -28.00     6200.00
03623             -26.00     6200.00
03624             -20.00     6000.00
03625             -20.00     5800.00
03626             -24.00     5800.00
03627             -24.00     5600.00
03628             -20.00     5400.00
03629             -16.00     5200.00
03630             -20.00     5200.00
03631             -18.00     5000.00
03632             -20.00     4800.00
03633             -18.00     4600.00
03634             -18.00     4400.00
03635             -20.00     4200.00
03636             -18.00     3800.00
03637             -10.00     3800.00
03638             -10.00     3600.00
03639             -18.00     3600.00
03640             -16.00     3400.00
03641             -14.00     3200.00
03642             -14.00     3000.00
03643             -10.00     2800.00
03644             -10.00     2600.00
03645             -10.00     2400.00
03646             -10.00     2200.00
03647             -10.00     2200.00
03648              -8.00     2000.00
03649             -12.00     1800.00
03650             -10.00     1400.00
03651              -4.00     1400.00
03652              -4.00     1200.00
03653              -8.00     1000.00
03654              -8.00      600.00
03655              -4.00      600.00
03656              -2.00      400.00
03657              -2.00      200.00
03658              -2.00        0.00
03659               4.00     -200.00
03660               6.00     -400.00
03661              24.00     -600.00
03662              30.00     -800.00
03663              -8.00     -800.00
03664             -20.00    -1000.00
03665               8.00    -1200.00
03666              30.00    -1200.00
03667              24.00    -1600.00
03668              80.00    -1600.00
03669             252.00    -1800.00
03670             124.00    -2400.00
03671            -248.00    -2600.00
03672            -248.00    -2600.00
03673             138.00    -2800.00
03674             252.00    -2600.00
03675             252.00    -2800.00
03676              70.00    -3600.00
03677            -248.00    -3000.00
03678              -4.00    -3400.00
03679             252.00    -4200.00
03680             -40.00    -3400.00
03681            -248.00    -4000.00
03682             -40.00    -4600.00
03683             252.00    -4000.00
03684             252.00    -4800.00
03685             -44.00    -5000.00
03686            -248.00    -4600.00
03687              46.00    -5600.00
03688             252.00    -5200.00
03689             126.00    -5200.00
03690            -248.00    -5800.00
03691            -236.00    -5600.00
03692             230.00    -5800.00
03693             252.00    -6200.00
03694               4.00    -6000.00
03695            -248.00    -6400.00
03696             -82.00    -6600.00
03697             252.00    -6800.00
03698             166.00    -6800.00
03699            -236.00    -7000.00
03700            -130.00    -7400.00
03701             116.00    -7200.00
03702             236.00    -7400.00
03703              48.00    -7600.00
03704            -176.00    -7600.00
03705             -20.00    -8000.00
03706             176.00    -8000.00
03707             110.00    -8200.00
03708             -66.00    -8200.00
03709             -58.00    -8200.00
03710              80.00    -8600.00
03711             126.00    -8600.00
03712              36.00    -9000.00
03713             -74.00    -9000.00
03714               0.00    -9000.00
03715             132.00    -9200.00
03716              84.00    -9200.00
03717             -22.00    -9200.00
03718             -20.00    -9600.00
03719              54.00    -9600.00
03720              84.00    -9800.00
03721              36.00    -9600.00
03722               0.00    -9800.00
03723              22.00   -10000.00
03724              60.00   -10000.00
03725              54.00   -10400.00
03726              16.00   -10200.00
03727              14.00   -10200.00
03728              46.00   -10400.00
03729              60.00   -10400.00
03730              42.00   -10600.00
03731              22.00   -10600.00
03732              24.00   -10800.00
03733              44.00   -10800.00
03734              52.00   -10800.00
03735              34.00   -10800.00
03736              36.00   -10800.00
03737              48.00   -11000.00
03738              44.00   -11200.00
03739              32.00   -11000.00
03740              30.00   -11200.00
03741              40.00   -11200.00
03742              46.00   -11200.00
03743              44.00   -11200.00
03744              38.00   -11200.00
03745              30.00   -11200.00
03746              36.00   -11200.00
03747              44.00   -11200.00
03748              46.00   -11200.00
03749              44.00   -11200.00
03750              44.00   -11400.00
03751              40.00   -11400.00
03752              38.00   -11400.00
03753              38.00   -11400.00
03754              38.00   -11400.00
03755              44.00   -11400.00
03756              46.00   -11400.00
03757              44.00   -11400.00
03758              38.00   -11400.00
03759              36.00   -11400.00
03760              38.00   -11200.00
03761              40.00   -11400.00
03762              44.00   -11400.00
03763              38.00   -11200.00
03764              40.00   -11200.00
03765              36.00   -11200.00
03766              32.00   -11200.00
03767              38.00   -11000.00
03768              38.00   -11000.00
03769              40.00   -11000.00
03770              42.00   -11200.00
03771              38.00   -11000.00
03772              30.00   -10800.00
03773              30.00   -10800.00
03774              36.00   -10800.00
03775              38.00   -10800.00
03776              36.00   -10600.00
03777              32.00   -10600.00
03778              36.00   -10600.00
03779              28.00   -10600.00
03780              32.00   -10400.00
03781              34.00   -10400.00
03782              36.00   -10400.00
03783              34.00   -10200.00
03784              32.00   -10000.00
03785              28.00   -10000.00
03786              28.00    -9800.00
03787              28.00    -9800.00
03788              32.00    -9600.00
03789              32.00    -9600.00
03790              32.00    -9600.00
03791              28.00    -9400.00
03792              24.00    -9200.00
03793              26.00    -9200.00
03794              26.00    -9000.00
03795              28.00    -9000.00
03796              28.00    -8800.00
03797              28.00    -8800.00
03798              24.00    -8600.00
03799              20.00    -8400.00
03800              24.00    -8400.00
03801              28.00    -8200.00
03802              28.00    -8000.00
03803              28.00    -8000.00
03804              22.00    -7800.00
03805              16.00    -7600.00
03806              16.00    -7400.00
03807              20.00    -7400.00
03808              22.00    -7400.00
03809              24.00    -7000.00
03810              22.00    -7000.00
03811              16.00    -6800.00
03812              16.00    -6600.00
03813              14.00    -6600.00
03814              16.00    -6400.00
03815              20.00    -6400.00
03816              20.00    -6000.00
03817              16.00    -5800.00
03818              12.00    -5600.00
03819              12.00    -5400.00
03820              12.00    -5400.00
03821              12.00    -5000.00
03822              12.00    -5000.00
03823              14.00    -5000.00
03824              14.00    -4800.00
03825               8.00    -4600.00
03826               6.00    -4400.00
03827               8.00    -4400.00
03828               8.00    -4000.00
03829              12.00    -4000.00
03830              12.00    -3600.00
03831               4.00    -3400.00
03832               4.00    -3400.00
03833               2.00    -3200.00
03834               6.00    -3000.00
03835               6.00    -2800.00
03836               4.00    -2600.00
03837               4.00    -2600.00
03838               0.00    -2400.00
03839              -4.00    -2000.00
03840              -2.00    -1800.00
03841              -2.00    -1800.00
03842               2.00    -1600.00
03843               0.00    -1200.00
03844              -2.00    -1200.00
03845              -4.00    -1000.00
03846              -8.00     -800.00
03847              -8.00     -800.00
03848              -4.00     -400.00
03849              -4.00     -400.00
03850              -4.00     -200.00
03851              -4.00        0.00
03852               4.00      400.00
03853              22.00      400.00
03854               4.00      600.00
03855             -32.00     1000.00
03856             -22.00     1000.00
03857               8.00     1200.00
03858              16.00     1400.00
03859              86.00     1400.00
03860             252.00     2000.00
03861               8.00     2200.00
03862            -248.00     2400.00
03863            -248.00     2200.00
03864             150.00     2200.00
03865             252.00     2800.00
03866             252.00     2800.00
03867            -248.00     2800.00
03868            -248.00     3200.00
03869             252.00     3200.00
03870             252.00     3600.00
03871            -248.00     4000.00
03872            -248.00     3600.00
03873             214.00     4200.00
03874             116.00     4200.00
03875             252.00     4000.00
03876            -248.00     5200.00
03877            -248.00     4800.00
03878             252.00     4600.00
03879             252.00     5600.00
03880            -246.00     5000.00
03881            -224.00     5200.00
03882            -186.00     6200.00
03883             246.00     5400.00
03884             252.00     6000.00
03885            -202.00     6400.00
03886            -248.00     5800.00
03887              58.00     6400.00
03888             252.00     6800.00
03889            -182.00     6400.00
03890            -242.00     7000.00
03891              32.00     7200.00
03892             -78.00     7200.00
03893             158.00     7200.00
03894              -4.00     7800.00
03895            -248.00     7600.00
03896              24.00     7400.00
03897              72.00     8400.00
03898             -50.00     8000.00
03899             -88.00     8000.00
03900             -34.00     8600.00
03901             -24.00     8000.00
03902             -30.00     8600.00
03903              20.00     8600.00
03904            -132.00     8800.00
03905             -64.00     8800.00
03906              86.00     9000.00
03907             -84.00     9200.00
03908             -82.00     9000.00
03909               0.00     9400.00
03910             -58.00     9600.00
03911             -50.00     9200.00
03912             -12.00     9800.00
03913             -50.00     9600.00
03914             -68.00     9600.00
03915             -10.00    10000.00
03916             -44.00    10000.00
03917             -74.00    10000.00
03918              -8.00    10200.00
03919             -50.00    10200.00
03920             -70.00    10200.00
03921             -10.00    10400.00
03922             -50.00    10400.00
03923             -64.00    10400.00
03924             -20.00    10600.00
03925             -52.00    10800.00
03926             -70.00    10600.00
03927             -10.00    10800.00
03928             -28.00    10800.00
03929             -80.00    10800.00
03930             -42.00    11000.00
03931             -34.00    11200.00
03932             -60.00    11000.00
03933             -34.00    11000.00
03934             -34.00    11200.00
03935             -64.00    11000.00
03936             -40.00    11200.00
03937             -36.00    11200.00
03938             -64.00    11200.00
03939             -44.00    11200.00
03940             -34.00    11400.00
03941             -50.00    11200.00
03942             -40.00    11200.00
03943             -44.00    11200.00
03944             -60.00    11400.00
03945             -40.00    11200.00
03946             -32.00    11200.00
03947             -58.00    11200.00
03948             -48.00    11200.00
03949             -40.00    11200.00
03950             -52.00    11200.00
03951             -42.00    11200.00
03952             -40.00    11000.00
03953             -52.00    11200.00
03954             -44.00    11200.00
03955             -34.00    11200.00
03956             -48.00    11200.00
03957             -52.00    11200.00
03958             -48.00    11000.00
03959             -48.00    11200.00
03960             -36.00    11000.00
03961             -32.00    10800.00
03962             -46.00    11000.00
03963             -50.00    11000.00
03964             -44.00    10800.00
03965             -48.00    10800.00
03966             -36.00    10800.00
03967             -32.00    10600.00
03968             -42.00    10400.00
03969             -48.00    10400.00
03970             -48.00    10400.00
03971             -44.00    10400.00
03972             -36.00    10200.00
03973             -32.00    10000.00
03974             -42.00    10000.00
03975             -48.00    10000.00
03976             -42.00    10000.00
03977             -40.00     9800.00
03978             -34.00     9600.00
03979             -38.00     9600.00
03980             -42.00     9400.00
03981             -40.00     9400.00
03982             -34.00     9200.00
03983             -40.00     9200.00
03984             -36.00     9200.00
03985             -36.00     9000.00
03986             -40.00     8800.00
03987             -34.00     8800.00
03988             -30.00     8600.00
03989             -36.00     8600.00
03990             -36.00     8400.00
03991             -36.00     8400.00
03992             -34.00     8000.00
03993             -32.00     8000.00
03994             -28.00     8000.00
03995             -34.00     7800.00
03996             -30.00     7600.00
03997             -32.00     7600.00
03998             -28.00     7200.00
03999             -28.00     7200.00
04000             -26.00     7000.00
04001             -28.00     7000.00
04002             -24.00     6800.00
04003             -28.00     6600.00
04004             -28.00     6400.00
04005             -32.00     6400.00
04006             -20.00     6200.00
04007             -20.00     6000.00
04008             -24.00     5800.00
04009             -24.00     5800.00
04010             -24.00     5400.00
04011             -20.00     5400.00
04012             -18.00     5200.00
04013             -18.00     5200.00
04014             -18.00     4800.00
04015             -20.00     4600.00
04016             -18.00     4600.00
04017             -18.00     4200.00
04018             -18.00     4000.00
04019             -16.00     4000.00
04020             -10.00     3800.00
04021             -10.00     3600.00
04022             -12.00     3400.00
04023             -14.00     3200.00
04024             -16.00     3000.00
04025             -12.00     2800.00
04026             -10.00     2800.00
04027              -6.00     2400.00
04028             -10.00     2200.00
04029             -10.00     2200.00
04030              -8.00     2000.00
04031              -6.00     2000.00
04032              -8.00     1600.00
04033              -8.00     1600.00
04034              -4.00     1200.00
04035              -4.00     1200.00
04036              -4.00      800.00
04037              -8.00      800.00
04038              -4.00      400.00
04039              -2.00      400.00
04040              -2.00        0.00
04041               4.00        0.00
04042               6.00     -200.00
04043               6.00     -400.00
04044              30.00     -600.00
04045              24.00     -800.00
04046             -14.00    -1000.00
04047             -18.00    -1000.00
04048              20.00    -1000.00
04049              32.00    -1200.00
04050              30.00    -1600.00
04051             134.00    -1800.00
04052             252.00    -2200.00
04053             -52.00    -2600.00
04054            -248.00    -2600.00
04055            -248.00    -2800.00
04056             240.00    -2800.00
04057             252.00    -2400.00
04058             252.00    -3200.00
04059            -248.00    -3600.00
04060            -248.00    -2800.00
04061             252.00    -4000.00
04062             252.00    -4200.00
04063            -248.00    -3400.00
04064            -248.00    -4400.00
04065              96.00    -4400.00
04066             252.00    -4000.00
04067             252.00    -5200.00
04068            -248.00    -4800.00
04069            -248.00    -4600.00
04070             252.00    -5600.00
04071             252.00    -5000.00
04072             -50.00    -5400.00
04073            -248.00    -5800.00
04074            -106.00    -5600.00
04075             252.00    -6000.00
04076             252.00    -6200.00
04077            -144.00    -6400.00
04078            -248.00    -6400.00
04079              94.00    -6600.00
04080             252.00    -6800.00
04081               8.00    -6600.00
04082            -248.00    -7200.00
04083             -58.00    -7200.00
04084             174.00    -7200.00
04085             216.00    -7800.00
04086             -44.00    -7600.00
04087            -166.00    -7800.00
04088              54.00    -8000.00
04089             188.00    -8000.00
04090              60.00    -8200.00
04091             -92.00    -8400.00
04092             -20.00    -8400.00
04093             114.00    -8600.00
04094             108.00    -8600.00
04095              -4.00    -8800.00
04096             -70.00    -8800.00
04097              46.00    -9000.00
04098             136.00    -9200.00
04099              46.00    -9000.00
04100             -36.00    -9400.00
04101               0.00    -9400.00
04102              72.00    -9600.00
04103              72.00    -9800.00
04104              20.00    -9800.00
04105               4.00    -9800.00
04106              36.00   -10000.00
04107              68.00   -10000.00
04108              44.00   -10000.00
04109               8.00   -10400.00
04110              22.00   -10400.00
04111              54.00   -10400.00
04112              56.00   -10400.00
04113              36.00   -10600.00
04114              22.00   -10600.00
04115              30.00   -10600.00
04116              46.00   -10800.00
04117              46.00   -10800.00
04118              30.00   -10800.00
04119              36.00   -10800.00
04120              52.00   -10800.00
04121              38.00   -10800.00
04122              26.00   -11200.00
04123              36.00   -11200.00
04124              40.00   -11000.00
04125              46.00   -11200.00
04126              44.00   -11200.00
04127              36.00   -11400.00
04128              28.00   -11400.00
04129              38.00   -11400.00
04130              40.00   -11400.00
04131              44.00   -11400.00
04132              42.00   -11400.00
04133              40.00   -11400.00
04134              36.00   -11400.00
04135              38.00   -11400.00
04136              38.00   -11400.00
04137              40.00   -11400.00
04138              46.00   -11400.00
04139              44.00   -11400.00
04140              38.00   -11400.00
04141              38.00   -11400.00
04142              36.00   -11400.00
04143              36.00   -11400.00
04144              44.00   -11200.00
04145              44.00   -11400.00
04146              40.00   -11200.00
04147              38.00   -11200.00
04148              36.00   -11200.00
04149              36.00   -11200.00
04150              38.00   -11200.00
04151              40.00   -11000.00
04152              40.00   -11000.00
04153              40.00   -11000.00
04154              38.00   -10800.00
04155              30.00   -10800.00
04156              34.00   -10800.00
04157              38.00   -10800.00
04158              40.00   -10600.00
04159              38.00   -10800.00
04160              36.00   -10400.00
04161              32.00   -10400.00
04162              32.00   -10400.00
04163              32.00   -10400.00
04164              32.00   -10200.00
04165              36.00   -10200.00
04166              36.00   -10000.00
04167              30.00   -10000.00
04168              26.00   -10000.00
04169              28.00    -9800.00
04170              30.00    -9800.00
04171              32.00    -9600.00
04172              34.00    -9600.00
04173              30.00    -9600.00
04174              28.00    -9600.00
04175              24.00    -9400.00
04176              28.00    -9200.00
04177              28.00    -9000.00
04178              28.00    -9000.00
04179              30.00    -8800.00
04180              24.00    -8600.00
04181              22.00    -8400.00
04182              22.00    -8400.00
04183              22.00    -8400.00
04184              24.00    -8200.00
04185              28.00    -8000.00
04186              24.00    -7800.00
04187              24.00    -7800.00
04188              18.00    -7600.00
04189              16.00    -7600.00
04190              20.00    -7400.00
04191              22.00    -7200.00
04192              20.00    -7200.00
04193              22.00    -7000.00
04194              20.00    -6800.00
04195              16.00    -6800.00
04196              14.00    -6600.00
04197              14.00    -6200.00
04198              20.00    -6200.00
04199              18.00    -6000.00
04200              16.00    -5800.00
04201              12.00    -5600.00
04202              12.00    -5400.00
04203              12.00    -5400.00
04204              14.00    -5200.00
04205              14.00    -5000.00
04206              12.00    -5000.00
04207              12.00    -4600.00
04208               8.00    -4400.00
04209               6.00    -4400.00
04210               8.00    -4200.00
04211              12.00    -4000.00
04212              12.00    -3800.00
04213               8.00    -3600.00
04214               6.00    -3400.00
04215               4.00    -3200.00
04216               0.00    -3200.00
04217               6.00    -2800.00
04218               8.00    -2800.00
04219               4.00    -2600.00
04220               4.00    -2400.00
04221               0.00    -2000.00
04222              -4.00    -2000.00
04223              -2.00    -1800.00
04224               0.00    -1600.00
04225               0.00    -1400.00
04226               0.00    -1200.00
04227              -2.00    -1000.00
04228              -4.00     -800.00
04229              -6.00     -800.00
04230              -6.00     -400.00
04231              -4.00     -400.00
04232              -4.00     -200.00
04233              -4.00     -200.00
04234              -4.00      200.00
04235              12.00      400.00
04236              22.00      600.00
04237             -10.00      600.00
04238             -34.00     1000.00
04239             -12.00      800.00
04240              14.00     1200.00
04241              20.00     1400.00
04242             154.00     1600.00
04243             252.00     2000.00
04244            -216.00     2200.00
04245            -248.00     2400.00
04246            -248.00     2400.00
04247             252.00     2200.00
04248             252.00     2800.00
04249             252.00     2800.00
04250            -248.00     2800.00
04251            -248.00     3200.00
04252             252.00     3200.00
04253             252.00     3800.00
04254            -248.00     3600.00
04255              30.00     3600.00
04256             124.00     4400.00
04257             252.00     4000.00
04258             252.00     4400.00
04259            -248.00     5200.00
04260            -226.00     4400.00
04261             252.00     4800.00
04262              24.00     5600.00
04263            -236.00     4800.00
04264            -228.00     5600.00
04265             -88.00     6200.00
04266             252.00     5400.00
04267             142.00     6200.00
04268            -248.00     6400.00
04269            -248.00     6000.00
04270             252.00     6800.00
04271             252.00     6600.00
04272            -248.00     6800.00
04273            -130.00     7000.00
04274              10.00     7200.00
04275             -38.00     7400.00
04276             184.00     7200.00
04277            -130.00     7800.00
04278            -210.00     7600.00
04279              78.00     7600.00
04280              30.00     8400.00
04281             -64.00     7800.00
04282             -80.00     8200.00
04283             -24.00     8400.00
04284             -42.00     8200.00
04285              -4.00     8600.00
04286              -8.00     8600.00
04287            -154.00     8800.00
04288               6.00     8800.00
04289              52.00     9200.00
04290            -120.00     9200.00
04291             -40.00     9000.00
04292             -10.00     9400.00
04293             -68.00     9400.00
04294             -34.00     9400.00
04295             -20.00     9800.00
04296             -64.00     9600.00
04297             -52.00     9800.00
04298             -10.00    10000.00
04299             -66.00    10000.00
04300             -58.00    10000.00
04301              -6.00    10000.00
04302             -66.00    10200.00
04303             -54.00    10200.00
04304             -16.00    10400.00
04305             -62.00    10400.00
04306             -52.00    10400.00
04307             -26.00    10600.00
04308             -68.00    10800.00
04309             -58.00    10800.00
04310              -4.00    10800.00
04311             -48.00    10800.00
04312             -76.00    10800.00
04313             -34.00    11000.00
04314             -48.00    11000.00
04315             -52.00    10800.00
04316             -24.00    11000.00
04317             -52.00    11000.00
04318             -66.00    11200.00
04319             -32.00    11200.00
04320             -42.00    11200.00
04321             -60.00    11200.00
04322             -36.00    11200.00
04323             -42.00    11200.00
04324             -50.00    11200.00
04325             -34.00    11200.00
04326             -52.00    11400.00
04327             -66.00    11200.00
04328             -32.00    11200.00
04329             -36.00    11200.00
04330             -56.00    11200.00
04331             -44.00    11200.00
04332             -42.00    11200.00
04333             -56.00    11200.00
04334             -36.00    11400.00
04335             -38.00    11200.00
04336             -58.00    11200.00
04337             -40.00    11200.00
04338             -38.00    11200.00
04339             -56.00    11000.00
04340             -44.00    11200.00
04341             -44.00    11000.00
04342             -48.00    11000.00
04343             -34.00    11000.00
04344             -40.00    10800.00
04345             -52.00    11000.00
04346             -44.00    11000.00
04347             -40.00    10800.00
04348             -46.00    10800.00
04349             -40.00    10800.00
04350             -40.00    10400.00
04351             -44.00    10600.00
04352             -38.00    10400.00
04353             -40.00    10400.00
04354             -46.00    10200.00
04355             -44.00    10200.00
04356             -32.00    10200.00
04357             -36.00    10000.00
04358             -42.00    10000.00
04359             -38.00     9800.00
04360             -44.00    10000.00
04361             -42.00     9600.00
04362             -32.00     9600.00
04363             -36.00     9400.00
04364             -40.00     9200.00
04365             -34.00     9400.00
04366             -42.00     9200.00
04367             -40.00     9200.00
04368             -34.00     9000.00
04369             -34.00     8800.00
04370             -34.00     8800.00
04371             -32.00     8600.00
04372             -36.00     8400.00
04373             -40.00     8200.00
04374             -34.00     8200.00
04375             -34.00     8000.00
04376             -28.00     8000.00
04377             -28.00     7800.00
04378             -32.00     7600.00
04379             -34.00     7600.00
04380             -32.00     7600.00
04381             -28.00     7200.00
04382             -26.00     7200.00
04383             -26.00     7000.00
04384             -28.00     6800.00
04385             -26.00     6800.00
04386             -26.00     6400.00
04387             -28.00     6400.00
04388             -26.00     6200.00
04389             -24.00     6000.00
04390             -22.00     5800.00
04391             -22.00     5800.00
04392             -24.00     5600.00
04393             -20.00     5400.00
04394             -20.00     5400.00
04395             -18.00     5200.00
04396             -20.00     5000.00
04397             -18.00     4800.00
04398             -18.00     4600.00
04399             -18.00     4400.00
04400             -18.00     4200.00
04401             -18.00     4000.00
04402             -14.00     4000.00
04403             -10.00     3800.00
04404             -12.00     3600.00
04405             -12.00     3400.00
04406             -18.00     3200.00
04407             -10.00     3000.00
04408             -10.00     2800.00
04409             -10.00     2800.00
04410              -8.00     2400.00
04411              -6.00     2200.00
04412             -10.00     2200.00
04413              -8.00     1800.00
04414              -8.00     1800.00
04415              -6.00     1600.00
04416              -2.00     1400.00
04417              -2.00     1200.00
04418               0.00     1200.00
04419              -8.00      800.00
04420              -4.00      800.00
04421              -2.00      400.00
04422               4.00      400.00
04423              -2.00        0.00
04424               4.00     -200.00
04425               4.00     -200.00
04426              14.00     -400.00
04427              32.00     -600.00
04428              12.00     -800.00
04429             -20.00    -1000.00
04430              -6.00    -1000.00
04431              24.00    -1200.00
04432              30.00    -1400.00
04433              40.00    -1600.00
04434             200.00    -1800.00
04435             252.00    -2400.00
04436            -248.00    -2600.00
04437            -248.00    -2600.00
04438            -116.00    -2800.00
04439             252.00    -2600.00
04440             252.00    -2600.00
04441             252.00    -3200.00
04442            -248.00    -3400.00
04443            -248.00    -2800.00
04444             252.00    -4200.00
04445             252.00    -3800.00
04446            -248.00    -3400.00
04447            -248.00    -4800.00
04448             174.00    -4200.00
04449             252.00    -4400.00
04450             252.00    -5200.00
04451            -248.00    -4600.00
04452            -248.00    -5000.00
04453             252.00    -5400.00
04454             252.00    -5200.00
04455            -196.00    -5600.00
04456            -248.00    -5800.00
04457              36.00    -5600.00
04458             252.00    -6000.00
04459             188.00    -6000.00
04460            -248.00    -6400.00
04461            -248.00    -6400.00
04462             252.00    -6600.00
04463             252.00    -6800.00
04464            -130.00    -6800.00
04465            -218.00    -7200.00
04466              20.00    -7200.00
04467             214.00    -7200.00
04468             164.00    -7600.00
04469            -122.00    -7400.00
04470            -120.00    -8000.00
04471             118.00    -8000.00
04472             166.00    -8000.00
04473               4.00    -8400.00
04474             -90.00    -8200.00
04475              24.00    -8400.00
04476             126.00    -8600.00
04477              82.00    -8800.00
04478             -42.00    -9000.00
04479             -52.00    -9000.00
04480              88.00    -9200.00
04481             124.00    -9200.00
04482              14.00    -9200.00
04483             -36.00    -9600.00
04484              24.00    -9600.00
04485              84.00    -9600.00
04486              62.00    -9600.00
04487               8.00   -10000.00
04488               8.00   -10000.00
04489              48.00   -10000.00
04490              66.00   -10200.00
04491              32.00   -10000.00
04492               6.00   -10400.00
04493              32.00   -10400.00
04494              60.00   -10400.00
04495              48.00   -10400.00
04496              28.00   -10600.00
04497              20.00   -10600.00
04498              38.00   -10600.00
04499              52.00   -10800.00
04500              38.00   -10800.00
04501              30.00   -10800.00
04502              44.00   -10800.00
04503              48.00   -11000.00
04504              34.00   -11200.00
04505              28.00   -11200.00
04506              36.00   -11000.00
04507              40.00   -11200.00
04508              48.00   -11200.00
04509              44.00   -11200.00
04510              30.00   -11200.00
04511              32.00   -11400.00
04512              38.00   -11200.00
04513              44.00   -11400.00
04514              44.00   -11400.00
04515              38.00   -11400.00
04516              38.00   -11400.00
04517              38.00   -11600.00
04518              38.00   -11400.00
04519              34.00   -11400.00
04520              36.00   -11400.00
04521              48.00   -11400.00
04522              44.00   -11400.00
04523              36.00   -11400.00
04524              38.00   -11400.00
04525              32.00   -11400.00
04526              38.00   -11200.00
04527              46.00   -11400.00
04528              40.00   -11200.00
04529              40.00   -11200.00
04530              38.00   -11400.00
04531              34.00   -11200.00
04532              38.00   -11000.00
04533              38.00   -11200.00
04534              38.00   -11200.00
04535              40.00   -11000.00
04536              40.00   -10800.00
04537              32.00   -10800.00
04538              30.00   -10800.00
04539              32.00   -10800.00
04540              38.00   -10800.00
04541              44.00   -10600.00
04542              38.00   -10600.00
04543              34.00   -10600.00
04544              28.00   -10600.00
04545              30.00   -10400.00
04546              30.00   -10400.00
04547              36.00   -10400.00
04548              38.00   -10200.00
04549              36.00   -10000.00
04550              28.00   -10000.00
04551              28.00    -9800.00
04552              30.00    -9800.00
04553              36.00    -9600.00
04554              36.00    -9600.00
04555              30.00    -9600.00
04556              28.00    -9600.00
04557              28.00    -9400.00
04558              24.00    -9200.00
04559              28.00    -9200.00
04560              28.00    -9000.00
04561              30.00    -8800.00
04562              30.00    -8800.00
04563              28.00    -8800.00
04564              20.00    -8400.00
04565              20.00    -8400.00
04566              24.00    -8200.00
04567              28.00    -8200.00
04568              28.00    -8000.00
04569              24.00    -7800.00
04570              20.00    -7800.00
04571              16.00    -7600.00
04572              22.00    -7400.00
04573              22.00    -7400.00
04574              22.00    -7200.00
04575              20.00    -7000.00
04576              20.00    -7000.00
04577              16.00    -6800.00
04578              16.00    -6600.00
04579              14.00    -6400.00
04580              16.00    -6400.00
04581              18.00    -6200.00
04582              20.00    -6000.00
04583              12.00    -5800.00
04584              14.00    -5400.00
04585              12.00    -5400.00
04586              12.00    -5200.00
04587              14.00    -5200.00
04588              16.00    -5000.00
04589               8.00    -4800.00
04590               8.00    -4600.00
04591               8.00    -4400.00
04592               4.00    -4400.00
04593              10.00    -4200.00
04594              10.00    -3800.00
04595               8.00    -3600.00
04596              12.00    -3600.00
04597               4.00    -3400.00
04598               0.00    -3200.00
04599               4.00    -3000.00
04600               6.00    -2800.00
04601               4.00    -2800.00
04602               6.00    -2600.00
04603               0.00    -2200.00
04604              -2.00    -2200.00
04605               0.00    -1800.00
04606               0.00    -1800.00
04607              -2.00    -1600.00
04608              -2.00    -1600.00
04609               0.00    -1200.00
04610              -2.00    -1000.00
04611              -8.00    -1000.00
04612              -8.00     -800.00
04613              -4.00     -400.00
04614              -2.00     -200.00
04615               0.00     -200.00
04616              -2.00        0.00
04617              -2.00        0.00
04618              20.00      400.00
04619              16.00      400.00
04620             -20.00     1000.00
04621             -32.00     1000.00
04622              -2.00     1000.00
04623              14.00     1200.00
04624              28.00     1400.00
04625             238.00     1600.00
04626             248.00     2000.00
04627            -248.00     2400.00
04628            -248.00     2400.00
04629             -66.00     2200.00
04630             252.00     2400.00
04631             252.00     3000.00
04632              48.00     2800.00
04633            -248.00     3000.00
04634              94.00     3200.00
04635             252.00     3200.00
04636            -248.00     4000.00
04637            -248.00     3600.00
04638             196.00     4000.00
04639              52.00     4400.00
04640             252.00     4000.00
04641              60.00     4800.00
04642            -248.00     5000.00
04643             158.00     4400.00
04644             252.00     5200.00
04645            -154.00     5600.00
04646            -220.00     4800.00
04647            -236.00     6000.00
04648              48.00     6000.00
04649             252.00     5400.00
04650               0.00     6400.00
04651            -248.00     6000.00
04652            -224.00     6000.00
04653             252.00     7000.00
04654             118.00     6400.00
04655            -248.00     6800.00
04656             -20.00     7000.00
04657             -44.00     7400.00
04658              36.00     7000.00
04659             150.00     7200.00
04660            -232.00     8000.00
04661            -114.00     7600.00
04662             102.00     8000.00
04663             -10.00     8000.00
04664             -82.00     7800.00
04665             -64.00     8400.00
04666             -14.00     8400.00
04667             -42.00     8400.00
04668              18.00     8800.00
04669             -60.00     8600.00
04670            -140.00     8800.00
04671              64.00     8800.00
04672              -4.00     9200.00
04673            -120.00     9000.00
04674             -10.00     9200.00
04675             -32.00     9600.00
04676             -68.00     9200.00
04677             -20.00     9600.00
04678             -26.00     9600.00
04679             -70.00     9600.00
04680             -34.00    10000.00
04681             -16.00    10000.00
04682             -78.00    10000.00
04683             -32.00    10000.00
04684             -20.00    10200.00
04685             -80.00    10200.00
04686             -32.00    10200.00
04687             -24.00    10400.00
04688             -72.00    10400.00
04689             -38.00    10400.00
04690             -32.00    10800.00
04691             -74.00    10600.00
04692             -40.00    10800.00
04693              -8.00    11000.00
04694             -68.00    10800.00
04695             -66.00    11000.00
04696             -28.00    11000.00
04697             -56.00    11000.00
04698             -46.00    11000.00
04699             -26.00    11200.00
04700             -62.00    11200.00
04701             -56.00    11000.00
04702             -28.00    11200.00
04703             -56.00    11200.00
04704             -56.00    11200.00
04705             -32.00    11200.00
04706             -48.00    11400.00
04707             -50.00    11200.00
04708             -36.00    11400.00
04709             -60.00    11200.00
04710             -58.00    11200.00
04711             -28.00    11200.00
04712             -44.00    11200.00
04713             -56.00    11200.00
04714             -40.00    11400.00
04715             -48.00    11200.00
04716             -52.00    11400.00
04717             -36.00    11200.00
04718             -44.00    11200.00
04719             -56.00    11000.00
04720             -36.00    11200.00
04721             -40.00    11200.00
04722             -52.00    11200.00
04723             -44.00    11000.00
04724             -44.00    11200.00
04725             -44.00    11000.00
04726             -32.00    11000.00
04727             -42.00    11000.00
04728             -52.00    11000.00
04729             -42.00    10800.00
04730             -42.00    10800.00
04731             -44.00    10800.00
04732             -34.00    10600.00
04733             -42.00    10400.00
04734             -48.00    10400.00
04735             -34.00    10400.00
04736             -42.00    10400.00
04737             -44.00    10200.00
04738             -34.00    10200.00
04739             -36.00    10000.00
04740             -36.00    10000.00
04741             -38.00    10000.00
04742             -44.00    10000.00
04743             -42.00     9600.00
04744             -32.00     9600.00
04745             -32.00     9600.00
04746             -40.00     9400.00
04747             -40.00     9400.00
04748             -36.00     9400.00
04749             -36.00     9200.00
04750             -34.00     8800.00
04751             -34.00     8800.00
04752             -38.00     8600.00
04753             -32.00     8600.00
04754             -28.00     8400.00
04755             -38.00     8600.00
04756             -38.00     8400.00
04757             -34.00     8200.00
04758             -30.00     8000.00
04759             -24.00     7800.00
04760             -28.00     7800.00
04761             -36.00     7600.00
04762             -36.00     7600.00
04763             -26.00     7400.00
04764             -26.00     7200.00
04765             -28.00     7000.00
04766             -28.00     7000.00
04767             -26.00     6800.00
04768             -24.00     6800.00
04769             -26.00     6400.00
04770             -28.00     6200.00
04771             -28.00     6200.00
04772             -20.00     6000.00
04773             -20.00     6000.00
04774             -24.00     5600.00
04775             -26.00     5600.00
04776             -24.00     5400.00
04777             -20.00     5200.00
04778             -16.00     5000.00
04779             -20.00     4800.00
04780             -20.00     4800.00
04781             -20.00     4600.00
04782             -18.00     4400.00
04783             -18.00     4400.00
04784             -18.00     4000.00
04785             -12.00     3800.00
04786             -12.00     3600.00
04787             -10.00     3600.00
04788             -16.00     3200.00
04789             -16.00     3200.00
04790             -12.00     3000.00
04791              -8.00     2800.00
04792              -8.00     2600.00
04793              -8.00     2400.00
04794             -10.00     2200.00
04795             -10.00     2200.00
04796              -4.00     2000.00
04797              -4.00     1800.00
04798              -8.00     1600.00
04799              -4.00     1400.00
04800              -2.00     1200.00
04801              -4.00     1200.00
04802              -4.00      800.00
04803              -4.00      600.00
04804              -4.00      400.00
04805               0.00      200.00
04806               4.00        0.00
04807               6.00     -200.00
04808               6.00     -400.00
04809              20.00     -400.00
04810              32.00     -600.00
04811               4.00     -800.00
04812             -20.00    -1000.00
04813               4.00    -1200.00
04814              30.00    -1200.00
04815              28.00    -1600.00
04816              64.00    -1600.00
04817             252.00    -1800.00
04818             188.00    -2400.00
04819            -248.00    -2600.00
04820            -248.00    -2600.00
04821              68.00    -2800.00
04822             252.00    -2600.00
04823             252.00    -2800.00
04824             208.00    -3600.00
04825            -248.00    -3200.00
04826            -236.00    -3200.00
04827             252.00    -4400.00
04828             184.00    -3400.00
04829            -248.00    -4000.00
04830            -116.00    -4800.00
04831             228.00    -4000.00
04832             252.00    -4800.00
04833              68.00    -5200.00
04834            -248.00    -4600.00
04835             -66.00    -5200.00
04836             252.00    -5200.00
04837             196.00    -5200.00
04838            -248.00    -5800.00
04839            -248.00    -5600.00
04840             174.00    -5800.00
04841             252.00    -6000.00
04842              60.00    -6200.00
04843            -248.00    -6400.00
04844            -148.00    -6400.00
04845             252.00    -6800.00
04846             230.00    -6800.00
04847            -220.00    -7000.00
04848            -156.00    -7200.00
04849              86.00    -7200.00
04850             232.00    -7400.00
04851              86.00    -7600.00
04852            -168.00    -7600.00
04853             -52.00    -8200.00
04854             158.00    -8000.00
04855             132.00    -8000.00
04856             -46.00    -8200.00
04857             -66.00    -8200.00
04858              70.00    -8600.00
04859             124.00    -8600.00
04860              40.00    -8800.00
04861             -66.00    -8800.00
04862              -8.00    -9000.00
04863             124.00    -9200.00
04864              92.00    -9200.00
04865             -16.00    -9200.00
04866             -26.00    -9400.00
04867              52.00    -9600.00
04868              92.00    -9600.00
04869              38.00    -9800.00
04870              -2.00   -10000.00
04871              22.00   -10000.00
04872              60.00   -10000.00
04873              64.00   -10000.00
04874              22.00   -10000.00
04875               6.00   -10400.00
04876              42.00   -10400.00
04877              64.00   -10400.00
04878              46.00   -10600.00
04879              28.00   -10600.00
04880              24.00   -10600.00
04881              38.00   -10800.00
04882              52.00   -10800.00
04883              36.00   -10800.00
04884              28.00   -10800.00
04885              46.00   -10800.00
04886              48.00   -11000.00
04887              28.00   -11000.00
04888              28.00   -11200.00
04889              40.00   -11200.00
04890              44.00   -11000.00
04891              46.00   -11400.00
04892              40.00   -11200.00
04893              28.00   -11400.00
04894              32.00   -11400.00
04895              40.00   -11400.00
04896              44.00   -11400.00
04897              44.00   -11200.00
04898              40.00   -11400.00
04899              38.00   -11400.00
04900              36.00   -11400.00
04901              36.00   -11400.00
04902              38.00   -11400.00
04903              44.00   -11400.00
04904              44.00   -11400.00
04905              38.00   -11400.00
04906              38.00   -11400.00
04907              36.00   -11400.00
04908              36.00   -11400.00
04909              40.00   -11400.00
04910              44.00   -11400.00
04911              44.00   -11200.00
04912              38.00   -11200.00
04913              38.00   -11200.00
04914              36.00   -11200.00
04915              36.00   -11200.00
04916              38.00   -11200.00
04917              40.00   -11000.00
04918              40.00   -11000.00
04919              38.00   -10800.00
04920              34.00   -10800.00
04921              30.00   -10800.00
04922              38.00   -10800.00
04923              38.00   -10800.00
04924              38.00   -10600.00
04925              36.00   -10600.00
04926              36.00   -10600.00
04927              30.00   -10400.00
04928              34.00   -10400.00
04929              36.00   -10400.00
04930              36.00   -10200.00
04931              38.00   -10200.00
04932              36.00   -10200.00
04933              28.00   -10000.00
04934              30.00    -9800.00
04935              30.00    -9800.00
04936              32.00    -9600.00
04937              38.00    -9600.00
04938              36.00    -9600.00
04939              30.00    -9400.00
04940              26.00    -9200.00
04941              24.00    -9200.00
04942              24.00    -9000.00
04943              24.00    -9000.00
04944              32.00    -8800.00
04945              38.00    -8800.00
04946              32.00    -8600.00
04947              22.00    -8600.00
04948              12.00    -8200.00
04949              16.00    -8200.00
04950              28.00    -8000.00
04951              36.00    -8000.00
04952              28.00    -7800.00
04953              16.00    -7600.00
04954              14.00    -7600.00
04955              16.00    -7200.00
04956              24.00    -7200.00
04957              24.00    -7200.00
04958              22.00    -7200.00
04959              16.00    -6800.00
04960              14.00    -6800.00
04961              14.00    -6600.00
04962              20.00    -6400.00
04963              16.00    -6000.00
04964              16.00    -6000.00
04965              16.00    -5800.00
04966              12.00    -5600.00
04967              12.00    -5400.00
04968              12.00    -5400.00
04969              12.00    -5200.00
04970              14.00    -5000.00
04971              14.00    -5000.00
04972               8.00    -4800.00
04973               6.00    -4600.00
04974               8.00    -4400.00
04975               8.00    -4200.00
04976               8.00    -4200.00
04977              10.00    -4000.00
04978               8.00    -3800.00
04979               4.00    -3600.00
04980               4.00    -3400.00
04981               0.00    -3400.00
04982               0.00    -3000.00
04983               4.00    -2800.00
04984               4.00    -2600.00
04985               4.00    -2400.00
04986               4.00    -2400.00
04987              -4.00    -2000.00
04988              -2.00    -2000.00
04989               0.00    -1800.00
04990              -2.00    -1600.00
04991               0.00    -1400.00
04992              -2.00    -1200.00
04993              -4.00    -1000.00
04994              -6.00     -800.00
04995              -4.00     -600.00
04996              -4.00     -400.00
04997              -4.00     -400.00
04998              -4.00        0.00
04999              -2.00        0.00
05000               0.00      200.00
